timestamp,qnum,TP9,AF7,AF8,TP10,RightAux
1733383200.2956712,1,0.0,-34.1796875,-386.71875,23.92578125,0.0
1733383200.3086398,1,0.0,-32.2265625,-480.46875,72.265625,0.0
1733383200.3186665,1,0.0,-32.2265625,-513.18359375,120.1171875,0.0
1733383200.329272,1,0.0,-31.25,-356.4453125,88.37890625,0.0
1733383200.3399813,1,0.0,-18.5546875,-351.07421875,76.66015625,0.0
1733383200.350926,1,0.0,-26.3671875,-555.6640625,140.13671875,0.0
1733383200.360977,1,0.0,-26.85546875,-517.578125,114.74609375,0.0
1733383200.3718965,1,0.0,-15.13671875,-296.38671875,91.796875,0.0
1733383200.3825593,1,0.0,-19.53125,-323.73046875,104.98046875,0.0
1733383200.392952,1,0.0,-20.99609375,-394.53125,104.00390625,0.0
1733383200.4031994,1,0.0,-17.578125,-315.91796875,94.7265625,0.0
1733383200.4141774,1,0.0,-10.7421875,-282.2265625,68.84765625,0.0
1733383200.4248228,1,113.76953125,-24.90234375,-337.890625,123.046875,0.0
1733383200.4353828,1,137.6953125,-45.41015625,-384.27734375,145.99609375,0.0
1733383200.4457326,1,154.78515625,-40.52734375,-312.98828125,81.0546875,0.0
1733383200.4559355,1,151.85546875,-14.6484375,-296.38671875,90.33203125,0.0
1733383200.466191,1,124.51171875,-13.18359375,-329.1015625,127.44140625,0.0
1733383200.4768283,1,154.78515625,-35.15625,-394.04296875,140.625,0.0
1733383200.4871142,1,124.0234375,-44.921875,-379.39453125,129.8828125,0.0
1733383200.497678,1,104.98046875,-28.3203125,-354.98046875,106.4453125,0.0
1733383200.5078065,1,187.98828125,-8.7890625,-424.31640625,125.48828125,0.0
1733383200.5181677,1,193.359375,-22.4609375,-471.6796875,170.8984375,0.0
1733383200.528939,1,55.6640625,-43.45703125,-249.0234375,79.58984375,0.0
1733383200.5395308,1,83.0078125,-48.828125,-225.09765625,15.13671875,0.0
1733383200.5504293,1,256.8359375,-26.85546875,-326.66015625,118.1640625,0.0
1733383200.5613246,1,257.32421875,3.41796875,-332.03125,155.76171875,0.0
1733383200.5717614,1,81.0546875,3.41796875,-270.99609375,64.453125,0.0
1733383200.5824797,1,-15.625,5.37109375,-216.30859375,43.45703125,0.0
1733383200.5931394,1,83.49609375,11.23046875,-287.59765625,138.18359375,0.0
1733383200.6039104,1,138.18359375,-3.90625,-377.9296875,146.97265625,0.0
1733383200.614767,1,60.05859375,-13.18359375,-333.49609375,69.3359375,0.0
1733383200.6257303,1,52.24609375,0.0,-286.1328125,25.390625,0.0
1733383200.6367593,1,124.0234375,-5.859375,-454.58984375,112.79296875,0.0
1733383200.647456,1,101.5625,-20.99609375,-337.40234375,102.05078125,0.0
1733383200.6581807,1,21.484375,-11.71875,-148.4375,19.53125,0.0
1733383200.669344,1,35.64453125,-25.87890625,-275.87890625,57.12890625,0.0
1733383200.679618,1,115.234375,-39.0625,-423.33984375,125.48828125,0.0
1733383200.6901472,1,128.41796875,-17.578125,-296.875,80.56640625,0.0
1733383200.7011335,1,81.0546875,1.46484375,-197.75390625,22.4609375,0.0
1733383200.7117128,1,54.19921875,0.48828125,-257.32421875,60.546875,0.0
1733383200.7225554,1,83.984375,-9.765625,-340.33203125,67.3828125,0.0
1733383200.7335682,1,129.39453125,-17.08984375,-361.81640625,40.52734375,0.0
1733383200.7440667,1,109.86328125,-5.859375,-333.0078125,56.15234375,0.0
1733383200.7550955,1,87.40234375,-5.859375,-432.6171875,60.546875,0.0
1733383200.7655847,1,99.609375,-19.53125,-448.73046875,39.55078125,0.0
1733383200.7757964,1,49.31640625,-26.85546875,-281.73828125,-26.85546875,0.0
1733383200.7862492,1,47.8515625,-33.69140625,-290.0390625,-27.34375,0.0
1733383200.796406,1,43.9453125,-43.45703125,-431.640625,-3.41796875,0.0
1733383200.8075356,1,0.48828125,-27.83203125,-373.53515625,-62.98828125,0.0
1733383200.817901,1,10.25390625,-13.671875,-259.765625,-82.51953125,0.0
1733383200.8281984,1,98.6328125,-19.04296875,-275.87890625,-41.015625,0.0
1733383200.8391964,1,117.1875,-17.08984375,-308.10546875,-19.04296875,0.0
1733383200.8491995,1,0.0,-21.484375,-318.359375,-70.3125,0.0
1733383200.8593934,1,17.08984375,-12.6953125,-399.4140625,-49.8046875,0.0
1733383200.8703575,1,84.47265625,-29.78515625,-382.32421875,-17.08984375,0.0
1733383200.8809152,1,109.375,-36.1328125,-484.375,11.23046875,0.0
1733383200.8910944,1,65.91796875,-27.83203125,-503.90625,-1.46484375,0.0
1733383200.9015849,1,-7.8125,-35.15625,-269.04296875,-82.03125,0.0
1733383200.9120452,1,85.9375,-7.8125,-373.046875,-29.296875,0.0
1733383200.9221091,1,54.6875,-19.53125,-417.48046875,-2.9296875,0.0
1733383200.9323227,1,-40.0390625,-34.66796875,-350.09765625,-59.5703125,0.0
1733383200.9433224,1,-30.76171875,-4.39453125,-399.90234375,-59.08203125,0.0
1733383200.9533381,1,-12.20703125,-12.6953125,-459.9609375,-21.484375,0.0
1733383200.9640164,1,20.5078125,-26.85546875,-414.55078125,-33.69140625,0.0
1733383200.9740255,1,-16.6015625,-11.71875,-420.41015625,-52.24609375,0.0
1733383200.984267,1,-18.06640625,-6.34765625,-476.07421875,-16.11328125,0.0
1733383200.994627,1,11.71875,-11.23046875,-534.66796875,-2.44140625,0.0
1733383201.00554,1,25.87890625,-12.6953125,-590.8203125,21.97265625,0.0
1733383201.0163074,1,-41.9921875,-16.6015625,-438.96484375,-51.26953125,0.0
1733383201.0265353,1,-89.84375,-16.6015625,-371.09375,-147.4609375,0.0
1733383201.037385,1,-86.9140625,-26.3671875,-527.83203125,-60.05859375,0.0
1733383201.0481787,1,-63.96484375,-36.62109375,-543.9453125,-23.92578125,0.0
1733383201.0585067,1,0.0,-30.2734375,-421.875,-67.87109375,0.0
1733383201.069473,1,0.0,-10.7421875,-433.10546875,-54.6875,0.0
1733383201.0804384,1,0.0,-23.92578125,-441.89453125,-46.38671875,0.0
1733383201.0908537,1,0.0,-30.2734375,-479.4921875,-62.01171875,0.0
1733383201.1012783,1,0.0,-1.46484375,-484.375,-84.47265625,0.0
1733383201.1120512,1,0.0,-0.48828125,-525.87890625,-82.51953125,0.0
1733383201.1230202,1,0.0,-19.04296875,-546.875,-51.26953125,0.0
1733383201.1339862,1,0.0,-20.5078125,-496.09375,-47.36328125,0.0
1733383201.1445632,1,0.0,-20.01953125,-418.9453125,-71.2890625,0.0
1733383201.1554434,1,0.0,-34.66796875,-444.3359375,-41.9921875,0.0
1733383201.165916,1,0.0,-42.96875,-590.8203125,64.453125,0.0
1733383201.176877,1,0.0,-51.26953125,-518.5546875,13.671875,0.0
1733383201.18725,1,-13.671875,-38.57421875,-377.9296875,-90.8203125,0.0
1733383201.1973858,1,16.6015625,-21.484375,-433.59375,-48.828125,0.0
1733383201.208136,1,11.71875,-20.5078125,-475.5859375,-15.625,0.0
1733383201.2190466,1,11.23046875,-16.11328125,-440.4296875,-38.0859375,0.0
1733383201.2290547,1,69.3359375,-14.16015625,-430.17578125,-2.44140625,0.0
1733383201.239268,1,127.44140625,-16.11328125,-536.62109375,82.51953125,0.0
1733383201.249735,1,58.59375,-33.69140625,-631.34765625,107.421875,0.0
1733383201.2603989,1,-10.7421875,-44.43359375,-524.90234375,30.76171875,0.0
1733383201.2711515,1,-7.8125,-31.73828125,-437.01171875,-18.06640625,0.0
1733383201.2817712,1,37.59765625,-28.3203125,-502.44140625,36.1328125,0.0
1733383201.291846,1,66.40625,-21.484375,-530.76171875,45.41015625,0.0
1733383201.3018508,1,0.9765625,-9.765625,-433.10546875,2.9296875,0.0
1733383201.3126285,1,-6.8359375,-31.73828125,-437.01171875,10.25390625,0.0
1733383201.323373,1,57.12890625,-38.57421875,-448.2421875,67.3828125,0.0
1733383201.333959,1,40.52734375,-1.46484375,-447.265625,57.12890625,0.0
1733383201.34418,1,1.46484375,17.08984375,-407.2265625,-12.6953125,0.0
1733383201.3551788,1,4.39453125,11.71875,-432.6171875,36.62109375,0.0
1733383201.3657732,1,79.58984375,-4.8828125,-560.05859375,119.62890625,0.0
1733383201.3770735,1,6.8359375,-31.73828125,-553.7109375,24.4140625,0.0
1733383201.3872857,1,-86.9140625,-23.92578125,-419.921875,-90.33203125,0.0
1733383201.3977625,1,5.859375,-9.765625,-451.171875,-58.59375,0.0
1733383201.4086702,1,94.7265625,-14.6484375,-562.01171875,22.4609375,0.0
1733383201.4188862,1,50.78125,-19.04296875,-508.30078125,4.8828125,0.0
1733383201.4302747,1,-11.71875,-15.13671875,-393.06640625,-66.40625,0.0
1733383201.4412415,1,8.7890625,-26.85546875,-429.6875,-29.296875,0.0
1733383201.4519713,1,82.03125,-35.15625,-474.12109375,7.32421875,0.0
1733383201.4624784,1,103.515625,-26.85546875,-407.71484375,11.71875,0.0
1733383201.4726882,1,29.296875,-33.69140625,-410.15625,-8.30078125,0.0
1733383201.483653,1,14.16015625,-39.0625,-474.12109375,-19.04296875,0.0
1733383201.4944713,1,77.63671875,-33.69140625,-543.45703125,2.9296875,0.0
1733383201.5045254,1,115.234375,-21.484375,-521.484375,-2.44140625,0.0
1733383201.515403,1,49.31640625,-10.7421875,-471.6796875,-16.6015625,0.0
1733383201.5258331,1,2.9296875,-17.08984375,-502.44140625,-17.08984375,0.0
1733383201.536811,1,62.01171875,-25.87890625,-600.5859375,0.0,0.0
1733383201.546879,1,62.01171875,-50.78125,-448.73046875,-49.31640625,0.0
1733383201.557651,1,20.01953125,-35.64453125,-425.78125,-55.17578125,0.0
1733383201.567933,1,0.0,-9.27734375,0.0,1.953125,0.0
1733383201.5786712,1,0.0,-25.87890625,0.0,-13.671875,0.0
1733383201.5891588,1,0.0,-32.71484375,0.0,-73.73046875,0.0
1733383201.5995998,1,0.0,-22.4609375,0.0,-32.71484375,0.0
1733383201.6104758,1,0.0,-11.23046875,0.0,20.99609375,0.0
1733383201.621088,1,0.0,-9.27734375,0.0,-22.94921875,0.0
1733383201.631424,1,0.0,-16.6015625,0.0,-78.125,0.0
1733383201.6423864,1,0.0,-15.625,0.0,-105.46875,0.0
1733383201.6523993,1,0.0,-17.08984375,0.0,-2.9296875,0.0
1733383201.6624022,1,0.0,-30.76171875,0.0,-0.48828125,0.0
1733383201.6737976,1,0.0,-29.296875,0.0,-117.67578125,0.0
1733383201.684192,1,0.0,-16.11328125,0.0,-51.26953125,0.0
1733383201.6946993,1,78.125,-8.30078125,-546.38671875,-1.953125,0.0
1733383201.7055814,1,38.0859375,-10.25390625,-468.75,-28.3203125,0.0
1733383201.7158005,1,28.3203125,-23.4375,-445.3125,-39.0625,0.0
1733383201.7261882,1,71.77734375,-12.20703125,-495.60546875,51.7578125,0.0
1733383201.7366376,1,65.4296875,-6.34765625,-523.92578125,74.21875,0.0
1733383201.746826,1,33.203125,-27.83203125,-550.78125,42.96875,0.0
1733383201.7579865,1,76.66015625,-25.87890625,-530.2734375,40.52734375,0.0
1733383201.7686534,1,136.23046875,-17.08984375,-584.9609375,51.26953125,0.0
1733383201.7788293,1,158.69140625,-27.83203125,-610.83984375,88.8671875,0.0
1733383201.7896261,1,29.296875,-42.48046875,-442.3828125,-33.69140625,0.0
1733383201.7998679,1,-26.3671875,-30.76171875,-381.8359375,-86.42578125,0.0
1733383201.8104944,1,71.2890625,-34.66796875,-501.46484375,18.06640625,0.0
1733383201.8207338,1,94.23828125,-40.52734375,-529.296875,73.73046875,0.0
1733383201.830862,1,77.1484375,-21.97265625,-406.73828125,14.6484375,0.0
1733383201.8422093,1,62.98828125,-13.18359375,-400.390625,-24.90234375,0.0
1733383201.853012,1,82.51953125,-14.16015625,-446.77734375,23.92578125,0.0
1733383201.8636725,1,104.98046875,-18.06640625,-455.078125,51.7578125,0.0
1733383201.873693,1,71.77734375,-15.13671875,-503.90625,47.8515625,0.0
1733383201.8838654,1,-13.18359375,-17.08984375,-455.078125,7.8125,0.0
1733383201.8943849,1,50.29296875,-29.78515625,-596.19140625,73.2421875,0.0
1733383201.9044795,1,104.00390625,-40.52734375,-596.6796875,71.2890625,0.0
1733383201.9145463,1,-3.90625,-39.0625,-349.12109375,15.625,0.0
1733383201.9254606,1,9.765625,-27.83203125,-451.66015625,88.37890625,0.0
1733383201.9357207,1,40.0390625,-19.53125,-485.3515625,34.1796875,0.0
1733383201.9461837,1,-9.765625,-20.5078125,-391.11328125,-38.57421875,0.0
1733383201.9565907,1,-54.6875,-25.390625,-361.328125,-55.6640625,0.0
1733383201.967718,1,-57.6171875,-34.66796875,-437.01171875,-39.0625,0.0
1733383201.9782746,1,-72.265625,-46.38671875,-444.82421875,-48.33984375,0.0
1733383201.9888618,1,-104.00390625,-38.0859375,-433.10546875,-89.84375,0.0
1733383201.9993262,1,-112.79296875,-34.1796875,-489.74609375,-79.1015625,0.0
1733383202.0102417,1,-34.1796875,-34.1796875,-570.80078125,-55.17578125,0.0
1733383202.0205958,1,-76.66015625,-40.0390625,-579.58984375,-85.9375,0.0
1733383202.0308807,1,-152.83203125,-49.8046875,-486.81640625,-164.55078125,0.0
1733383202.0409017,1,-45.8984375,-55.6640625,-512.20703125,-120.60546875,0.0
1733383202.0513468,1,3.41796875,-53.7109375,-625.48828125,-54.6875,0.0
1733383202.0620062,1,-25.390625,-40.52734375,-684.08203125,-67.87109375,0.0
1733383202.0721085,1,-110.83984375,-27.34375,-462.890625,-168.45703125,0.0
1733383202.083071,1,-17.578125,-12.20703125,-402.34375,-175.78125,0.0
1733383202.093333,1,86.9140625,-11.71875,-506.34765625,-106.93359375,0.0
1733383202.1035364,1,12.6953125,-23.92578125,-495.1171875,-129.8828125,0.0
1733383202.1144621,1,-36.1328125,-33.69140625,-455.078125,-134.765625,0.0
1733383202.1252437,1,9.27734375,-22.4609375,-539.55078125,-103.515625,0.0
1733383202.135631,1,87.890625,-19.04296875,-683.10546875,-21.484375,0.0
1733383202.1459937,1,38.57421875,-32.71484375,-693.84765625,-40.52734375,0.0
1733383202.1561852,1,-71.77734375,-20.99609375,-442.3828125,-184.08203125,0.0
1733383202.1663415,1,-5.859375,-7.8125,-499.51171875,-168.9453125,0.0
1733383202.1767693,1,76.171875,-20.99609375,-619.140625,-103.515625,0.0
1733383202.1868553,1,53.22265625,-26.85546875,-628.90625,-75.1953125,0.0
1733383202.19708,1,20.99609375,-20.5078125,-577.63671875,-94.23828125,0.0
1733383202.2079563,1,37.59765625,-26.3671875,-536.62109375,-70.3125,0.0
1733383202.2189205,1,61.03515625,-19.53125,-579.1015625,-59.08203125,0.0
1733383202.2299533,1,8.7890625,-10.7421875,-515.13671875,-77.1484375,0.0
1733383202.2409143,1,4.8828125,-2.9296875,-528.3203125,-100.09765625,0.0
1733383202.2517233,1,56.15234375,7.32421875,-638.671875,-103.515625,0.0
1733383202.2620945,1,91.30859375,-10.7421875,-694.82421875,-24.4140625,0.0
1733383202.2724688,1,30.76171875,-16.11328125,-586.9140625,-73.73046875,0.0
1733383202.2834322,1,-41.015625,6.8359375,-481.93359375,-159.1796875,0.0
1733383202.2943952,1,16.11328125,1.953125,-590.33203125,-103.515625,0.0
1733383202.3046958,1,48.33984375,-16.11328125,-622.0703125,-95.703125,0.0
1733383202.3156593,1,22.4609375,-7.32421875,-478.515625,-122.0703125,0.0
1733383202.3263974,1,15.625,-10.7421875,-500.0,-109.375,0.0
1733383202.3373632,1,48.828125,-40.0390625,-583.984375,-44.43359375,0.0
1733383202.3474267,1,52.734375,-30.2734375,-641.11328125,-24.90234375,0.0
1733383202.3574615,1,-5.859375,2.44140625,-595.21484375,-117.1875,0.0
1733383202.3680246,1,-19.53125,-9.27734375,-543.45703125,-148.4375,0.0
1733383202.3789253,1,58.10546875,-33.69140625,-712.890625,-49.8046875,0.0
1733383202.3899617,1,39.55078125,-39.55078125,-723.6328125,-58.10546875,0.0
1733383202.4008105,1,-43.45703125,-32.2265625,-500.9765625,-160.15625,0.0
1733383202.4108732,1,-0.9765625,-30.2734375,-540.0390625,-114.74609375,0.0
1733383202.4208786,1,29.296875,-22.4609375,-634.765625,-82.03125,0.0
1733383202.431893,1,-26.3671875,-23.4375,-559.08203125,-125.0,0.0
1733383202.4421494,1,-40.52734375,-26.85546875,-513.671875,-125.0,0.0
1733383202.4524758,1,0.0,-22.94921875,-557.6171875,-78.125,0.0
1733383202.4631279,1,0.0,-26.3671875,-593.26171875,-74.21875,0.0
1733383202.473134,1,0.0,-23.92578125,-562.5,-70.80078125,0.0
1733383202.4840167,1,0.0,-12.6953125,-550.29296875,-83.0078125,0.0
1733383202.494127,1,0.0,-2.9296875,-577.63671875,-52.24609375,0.0
1733383202.5045905,1,0.0,-14.6484375,-665.52734375,-16.11328125,0.0
1733383202.5155532,1,0.0,-23.92578125,-672.36328125,-81.0546875,0.0
1733383202.525665,1,0.0,-16.11328125,-620.1171875,-104.4921875,0.0
1733383202.5362773,1,0.0,-13.18359375,-637.20703125,-20.99609375,0.0
1733383202.5470943,1,0.0,-18.06640625,-699.21875,1.953125,0.0
1733383202.5571,1,0.0,-38.57421875,-566.40625,-135.25390625,0.0
1733383202.5673034,1,0.0,-41.015625,-509.765625,-135.7421875,0.0
1733383202.5782666,1,6.34765625,-29.296875,-598.6328125,-38.0859375,0.0
1733383202.5892317,1,15.13671875,-25.390625,-590.8203125,-59.5703125,0.0
1733383202.6001823,1,-49.8046875,-3.41796875,-513.671875,-106.93359375,0.0
1733383202.6111474,1,-29.296875,3.90625,-495.60546875,-112.3046875,0.0
1733383202.621366,1,10.7421875,-4.39453125,-539.55078125,-64.453125,0.0
1733383202.6316178,1,87.890625,-14.16015625,-597.16796875,13.671875,0.0
1733383202.6418374,1,69.82421875,-9.27734375,-563.4765625,-22.94921875,0.0
1733383202.6519573,1,-52.734375,5.859375,-492.1875,-84.9609375,0.0
1733383202.66243,1,77.1484375,-4.39453125,-678.7109375,59.5703125,0.0
1733383202.6728814,1,125.0,-23.4375,-687.5,119.62890625,0.0
1733383202.6838074,1,-4.8828125,-13.18359375,-455.56640625,-38.0859375,0.0
1733383202.6940317,1,1.46484375,-1.953125,-504.8828125,-63.96484375,0.0
1733383202.7043912,1,-29.78515625,-14.16015625,-575.1953125,-13.18359375,0.0
1733383202.7153652,1,-15.13671875,-4.8828125,-479.00390625,24.90234375,0.0
1733383202.7267573,1,26.3671875,1.46484375,-434.08203125,38.57421875,0.0
1733383202.7372515,1,27.34375,-3.90625,-505.859375,33.203125,0.0
1733383202.7473996,1,69.3359375,-4.39453125,-553.22265625,43.9453125,0.0
1733383202.7582884,1,103.02734375,-14.16015625,-579.1015625,63.96484375,0.0
1733383202.76878,1,173.33984375,-31.25,-547.8515625,75.1953125,0.0
1733383202.7797415,1,115.72265625,-35.15625,-609.375,103.515625,0.0
1733383202.790705,1,17.08984375,-22.4609375,-641.11328125,110.83984375,0.0
1733383202.8016717,1,-17.578125,-3.41796875,-465.33203125,-1.46484375,0.0
1733383202.8126314,1,10.25390625,12.20703125,-413.0859375,-7.32421875,0.0
1733383202.8236015,1,71.2890625,2.9296875,-575.68359375,97.16796875,0.0
1733383202.8345637,1,44.921875,-9.27734375,-563.4765625,65.91796875,0.0
1733383202.8446348,1,18.06640625,-8.30078125,-425.78125,4.8828125,0.0
1733383202.855599,1,43.45703125,-4.39453125,-426.26953125,21.484375,0.0
1733383202.8659496,1,90.33203125,-12.20703125,-445.3125,63.4765625,0.0
1733383202.8769252,1,85.9375,-29.296875,-452.63671875,44.921875,0.0
1733383202.887379,1,71.2890625,-18.5546875,-538.57421875,53.22265625,0.0
1733383202.8983452,1,124.51171875,-8.30078125,-481.4453125,58.59375,0.0
1733383202.9083896,1,169.43359375,-25.87890625,-590.33203125,113.28125,0.0
1733383202.9192774,1,101.07421875,-31.25,-639.16015625,94.23828125,0.0
1733383202.9293149,1,11.23046875,-13.18359375,-377.44140625,-47.36328125,0.0
1733383202.940207,1,50.78125,0.9765625,-441.40625,3.90625,0.0
1733383202.9502583,1,77.63671875,-9.27734375,-471.6796875,75.68359375,0.0
1733383202.9608734,1,61.5234375,-13.18359375,-379.39453125,50.78125,0.0
1733383202.9709153,1,96.19140625,-18.06640625,-393.06640625,17.08984375,0.0
1733383202.981806,1,145.01953125,-24.4140625,-466.30859375,64.94140625,0.0
1733383202.991842,1,110.83984375,-29.296875,-426.7578125,96.19140625,0.0
1733383203.00273,1,74.70703125,-22.94921875,-429.19921875,72.75390625,0.0
1733383203.0127335,1,87.40234375,-9.765625,-497.0703125,75.68359375,0.0
1733383203.0236616,1,110.3515625,-27.83203125,-529.296875,39.55078125,0.0
1733383203.0346289,1,107.91015625,-45.8984375,-541.50390625,64.453125,0.0
1733383203.0455928,1,48.828125,-30.76171875,-427.24609375,7.32421875,0.0
1733383203.0556388,1,-4.8828125,-9.27734375,-344.23828125,-66.89453125,0.0
1733383203.06595,1,39.0625,-7.32421875,-438.96484375,-4.8828125,0.0
1733383203.076228,1,65.91796875,-11.71875,-445.80078125,43.9453125,0.0
1733383203.0862677,1,101.07421875,-7.8125,-332.51953125,13.671875,0.0
1733383203.0971577,1,73.73046875,-12.20703125,-364.74609375,-20.99609375,0.0
1733383203.1081216,1,30.76171875,-28.3203125,-395.01953125,31.25,0.0
1733383203.1190844,1,76.171875,-35.15625,-385.7421875,43.9453125,0.0
1733383203.1291037,1,112.3046875,-47.8515625,-397.4609375,50.29296875,0.0
1733383203.140014,1,115.72265625,-41.50390625,-442.3828125,80.078125,0.0
1733383203.1509802,1,158.69140625,-11.71875,-569.3359375,125.9765625,0.0
1733383203.1618307,1,186.5234375,-10.25390625,-580.56640625,113.28125,0.0
1733383203.1724544,1,68.359375,-14.16015625,-321.2890625,2.9296875,0.0
1733383203.1834202,1,13.18359375,-6.8359375,-401.3671875,26.3671875,0.0
1733383203.1936805,1,14.16015625,-9.765625,-452.63671875,13.671875,0.0
1733383203.2039027,1,3.41796875,-11.71875,-366.2109375,-16.6015625,0.0
1733383203.2139127,1,41.015625,-10.25390625,-324.70703125,13.671875,0.0
1733383203.2246609,1,75.68359375,-10.25390625,-394.53125,41.50390625,0.0
1733383203.2348375,1,11.23046875,-13.18359375,-449.70703125,56.15234375,0.0
1733383203.2457616,1,-36.1328125,-10.7421875,-394.53125,30.76171875,0.0
1733383203.2567232,1,34.66796875,-17.08984375,-413.0859375,48.33984375,0.0
1733383203.2676406,1,126.46484375,-29.78515625,-489.74609375,87.40234375,0.0
1733383203.2780347,1,145.5078125,-34.66796875,-583.984375,122.55859375,0.0
1733383203.288479,1,17.578125,-37.109375,-507.8125,52.24609375,0.0
1733383203.2988908,1,8.30078125,-30.76171875,-384.27734375,-20.01953125,0.0
1733383203.3098578,1,75.68359375,-33.203125,-401.85546875,37.59765625,0.0
1733383203.3208218,1,81.0546875,-36.62109375,-460.44921875,68.84765625,0.0
1733383203.3309667,1,42.96875,-14.6484375,-354.98046875,-7.32421875,0.0
1733383203.3419547,1,64.453125,9.765625,-329.58984375,-29.78515625,0.0
1733383203.3531268,1,177.734375,10.25390625,-395.01953125,26.85546875,0.0
1733383203.3636103,1,125.48828125,-8.7890625,-433.10546875,3.41796875,0.0
1733383203.3748245,1,9.27734375,-10.25390625,-349.609375,-44.921875,0.0
1733383203.3858907,1,47.36328125,0.9765625,-377.44140625,-8.7890625,0.0
1733383203.3967197,1,146.97265625,-11.71875,-578.61328125,109.86328125,0.0
1733383203.40705,1,147.94921875,-24.4140625,-540.0390625,90.8203125,0.0
1733383203.4182296,1,70.3125,-20.01953125,-336.9140625,-3.41796875,0.0
1733383203.4282315,1,81.0546875,-20.99609375,-364.2578125,97.65625,0.0
1733383203.439037,1,188.4765625,-25.390625,-463.8671875,164.55078125,0.0
1733383203.4500704,1,180.6640625,-23.92578125,-455.078125,75.68359375,0.0
1733383203.460586,1,69.82421875,-21.484375,-405.2734375,53.22265625,0.0
1733383203.471555,1,0.0,-26.3671875,-396.97265625,109.375,0.0
1733383203.481668,1,0.0,-28.80859375,-451.171875,154.296875,0.0
1733383203.491767,1,0.0,-21.97265625,-417.96875,149.90234375,0.0
1733383203.502313,1,0.0,-20.01953125,-406.73828125,143.5546875,0.0
1733383203.5129929,1,0.0,-20.99609375,-465.33203125,203.61328125,0.0
1733383203.5239232,1,0.0,-26.85546875,-556.640625,293.45703125,0.0
1733383203.5341198,1,0.0,-28.80859375,-585.44921875,328.61328125,0.0
1733383203.5448947,1,0.0,-22.94921875,-535.15625,391.11328125,0.0
1733383203.5554404,1,0.0,-29.78515625,-541.50390625,302.24609375,0.0
1733383203.5658479,1,0.0,-44.921875,-629.39453125,264.6484375,0.0
1733383203.576292,1,0.0,-51.7578125,-506.34765625,275.390625,0.0
1733383203.5868568,1,0.0,-45.41015625,-472.65625,358.88671875,0.0
1733383203.5982237,1,244.62890625,-41.015625,-562.98828125,491.2109375,0.0
1733383203.608868,1,316.40625,-40.0390625,-600.09765625,472.65625,0.0
1733383203.6189697,1,353.02734375,-37.59765625,-519.04296875,409.1796875,0.0
1733383203.6299276,1,333.984375,-25.390625,-485.3515625,487.79296875,0.0
1733383203.6408987,1,369.140625,-20.01953125,-562.5,754.39453125,0.0
1733383203.6518655,1,411.62109375,-28.3203125,-576.171875,828.125,0.0
1733383203.6622694,1,395.5078125,-32.71484375,-476.5625,799.8046875,0.0
1733383203.6723435,1,389.16015625,-25.390625,-365.234375,909.66796875,0.0
1733383203.6824248,1,490.72265625,-18.06640625,-562.98828125,966.796875,0.0
1733383203.692524,1,496.58203125,-16.6015625,-568.359375,952.1484375,0.0
1733383203.703418,1,404.78515625,-19.04296875,-291.9921875,943.84765625,0.0
1733383203.7140353,1,459.47265625,34.1796875,-236.81640625,895.99609375,0.0
1733383203.7249937,1,548.33984375,45.8984375,-285.15625,854.98046875,0.0
1733383203.7359562,1,567.87109375,-10.25390625,-121.58203125,865.72265625,0.0
1733383203.7469234,1,519.53125,20.5078125,133.7890625,923.33984375,0.0
1733383203.756931,1,564.453125,74.21875,85.9375,971.6796875,0.0
1733383203.7677813,1,657.2265625,64.453125,40.52734375,957.51953125,0.0
1733383203.7785587,1,638.671875,21.484375,119.62890625,963.37890625,0.0
1733383203.789232,1,625.0,0.48828125,208.984375,965.33203125,0.0
1733383203.8001971,1,682.6171875,15.625,252.44140625,964.84375,0.0
1733383203.8106754,1,720.703125,11.23046875,257.32421875,964.35546875,0.0
1733383203.8217103,1,634.27734375,16.6015625,366.2109375,923.33984375,0.0
1733383203.8326552,1,599.12109375,29.296875,458.0078125,905.2734375,0.0
1733383203.843566,1,660.64453125,34.66796875,374.0234375,881.34765625,0.0
1733383203.8545322,1,685.05859375,40.52734375,401.85546875,905.76171875,0.0
1733383203.8649983,1,616.69921875,43.45703125,507.32421875,914.0625,0.0
1733383203.875962,1,554.6875,40.0390625,495.1171875,712.890625,0.0
1733383203.8869355,1,604.00390625,50.78125,411.62109375,637.6953125,0.0
1733383203.8969555,1,629.8828125,80.56640625,463.37890625,700.1953125,0.0
1733383203.9078655,1,674.31640625,90.8203125,480.46875,773.4375,0.0
1733383203.9179068,1,698.73046875,82.51953125,466.30859375,778.80859375,0.0
1733383203.9290276,1,811.03515625,81.54296875,343.26171875,817.3828125,0.0
1733383203.9399972,1,908.203125,102.5390625,359.375,934.08203125,0.0
1733383203.950312,1,872.0703125,140.13671875,559.5703125,880.37109375,0.0
1733383203.9618049,1,945.80078125,117.1875,489.2578125,782.2265625,0.0
1733383203.971863,1,969.7265625,93.75,444.3359375,775.390625,0.0
1733383203.9827454,1,962.40234375,107.91015625,476.5625,757.8125,0.0
1733383203.9929965,1,964.35546875,124.51171875,465.8203125,641.11328125,0.0
1733383204.0037098,1,965.8203125,129.8828125,389.16015625,655.2734375,0.0
1733383204.0138407,1,957.03125,110.3515625,383.7890625,694.3359375,0.0
1733383204.0242066,1,925.78125,91.30859375,411.1328125,765.13671875,0.0
1733383204.0346005,1,877.44140625,102.5390625,380.859375,864.2578125,0.0
1733383204.0455017,1,882.32421875,108.3984375,329.1015625,824.70703125,0.0
1733383204.0563838,1,861.81640625,84.9609375,253.41796875,797.36328125,0.0
1733383204.066861,1,678.7109375,72.265625,346.6796875,654.78515625,0.0
1733383204.0774813,1,633.7890625,83.0078125,400.87890625,615.234375,0.0
1733383204.0884526,1,717.7734375,74.70703125,272.4609375,751.46484375,0.0
1733383204.0985055,1,675.78125,63.96484375,319.3359375,688.96484375,0.0
1733383204.1085138,1,0.0,62.98828125,410.15625,638.671875,0.0
1733383204.1191866,1,0.0,59.5703125,408.203125,688.96484375,0.0
1733383204.1301494,1,0.0,37.59765625,288.0859375,755.859375,0.0
1733383204.1402245,1,0.0,29.78515625,300.78125,788.0859375,0.0
1733383204.151293,1,0.0,42.48046875,361.81640625,770.01953125,0.0
1733383204.1619473,1,0.0,24.4140625,300.29296875,791.50390625,0.0
1733383204.1725512,1,0.0,14.6484375,147.94921875,830.078125,0.0
1733383204.182683,1,0.0,20.01953125,118.1640625,734.375,0.0
1733383204.1927924,1,0.0,11.71875,354.98046875,540.52734375,0.0
1733383204.20299,1,0.0,10.7421875,314.453125,537.59765625,0.0
1733383204.2133582,1,0.0,-1.46484375,290.0390625,501.46484375,0.0
1733383204.2239447,1,0.0,-0.9765625,269.04296875,428.7109375,0.0
1733383204.2341115,1,458.984375,-1.953125,141.11328125,459.9609375,0.0
1733383204.245076,1,520.99609375,-33.203125,83.0078125,403.3203125,0.0
1733383204.2559626,1,532.2265625,-43.45703125,90.33203125,279.78515625,0.0
1733383204.2661335,1,491.69921875,-31.25,72.265625,194.3359375,0.0
1733383204.2771454,1,529.296875,-22.4609375,20.99609375,95.703125,0.0
1733383204.2875364,1,525.390625,-30.76171875,-256.8359375,-12.20703125,0.0
1733383204.2988577,1,454.1015625,-41.9921875,-487.79296875,-96.6796875,0.0
1733383204.3097878,1,303.22265625,-51.26953125,-394.04296875,-206.0546875,0.0
1733383204.3203022,1,181.15234375,-47.36328125,-353.515625,-301.26953125,0.0
1733383204.3311481,1,216.30859375,-52.734375,-462.890625,-354.4921875,0.0
1733383204.3417723,1,215.8203125,-64.94140625,-537.109375,-405.2734375,0.0
1733383204.352435,1,199.70703125,-68.359375,-442.87109375,-448.73046875,0.0
1733383204.3628745,2,204.58984375,-61.03515625,-423.33984375,-498.046875,0.0
1733383204.3732734,2,112.3046875,-63.96484375,-502.44140625,-525.390625,0.0
1733383204.383931,2,56.15234375,-100.09765625,-575.1953125,-477.05078125,0.0
1733383204.394548,2,108.3984375,-105.95703125,-502.9296875,-400.87890625,0.0
1733383204.404585,2,57.12890625,-112.79296875,-502.44140625,-496.09375,0.0
1733383204.4214604,2,23.92578125,-112.79296875,-694.3359375,-617.1875,0.0
1733383204.4365973,2,3.41796875,-104.4921875,-733.88671875,-703.125,0.0
1733383204.4518738,2,-56.640625,-145.99609375,-550.78125,-827.63671875,0.0
1733383204.467308,2,-143.5546875,-118.65234375,-591.30859375,-932.6171875,0.0
1733383204.4829323,2,-369.140625,-68.359375,-668.9453125,-1000.0,0.0
1733383204.4978907,2,-419.43359375,-112.3046875,-684.08203125,-997.55859375,0.0
1733383204.5132957,2,-431.640625,-131.8359375,-681.15234375,-999.51171875,0.0
1733383204.5288076,2,-491.2109375,-111.328125,-688.96484375,-1000.0,0.0
1733383204.5437703,2,-548.828125,-140.13671875,-759.27734375,-1000.0,0.0
1733383204.5585947,2,-646.97265625,-140.625,-740.234375,-1000.0,0.0
1733383204.574336,2,-675.78125,-131.34765625,-739.2578125,-1000.0,0.0
1733383204.5902905,2,-688.96484375,-95.21484375,-776.85546875,-1000.0,0.0
1733383204.6059835,2,-750.0,-115.72265625,-832.03125,-1000.0,0.0
1733383204.6212025,2,-837.40234375,-151.3671875,-830.56640625,-1000.0,0.0
1733383204.6362653,2,-955.078125,123.53515625,-825.68359375,-1000.0,0.0
1733383204.6521068,2,-896.97265625,-17.578125,-882.8125,-1000.0,0.0
1733383204.6677177,2,-898.4375,-274.4140625,-908.203125,-1000.0,0.0
1733383204.6835973,2,-1000.0,-187.98828125,-815.91796875,-1000.0,0.0
1733383204.6991816,2,-1000.0,-139.16015625,-805.6640625,-1000.0,0.0
1733383204.7147126,2,-979.00390625,-156.73828125,-854.00390625,-1000.0,0.0
1733383204.730148,2,-974.12109375,-208.0078125,-888.18359375,-1000.0,0.0
1733383204.7461612,2,-1000.0,-166.50390625,-883.30078125,-1000.0,0.0
1733383204.762238,2,-1000.0,-135.25390625,-901.85546875,-1000.0,0.0
1733383204.7789128,2,-999.51171875,-141.6015625,-936.5234375,-1000.0,0.0
1733383204.7948236,2,-1000.0,-137.20703125,-973.14453125,-1000.0,0.0
1733383204.8100054,2,-1000.0,-115.72265625,-975.09765625,-1000.0,0.0
1733383204.824957,2,-1000.0,-104.4921875,-972.65625,-1000.0,0.0
1733383204.8399062,2,-1000.0,-109.375,-997.55859375,-1000.0,0.0
1733383204.854962,2,-1000.0,-135.25390625,-996.58203125,-1000.0,0.0
1733383204.8705323,2,-1000.0,-124.0234375,-978.515625,-1000.0,0.0
1733383204.8865654,2,-1000.0,-75.68359375,-982.91015625,-1000.0,0.0
1733383204.9031227,2,-1000.0,-62.98828125,-984.375,-1000.0,0.0
1733383204.9184604,2,-1000.0,-60.05859375,-964.84375,-1000.0,0.0
1733383204.933905,2,-1000.0,-53.7109375,-962.890625,-1000.0,0.0
1733383204.9499717,2,-1000.0,-63.96484375,-971.19140625,-1000.0,0.0
1733383204.9655728,2,-1000.0,-75.1953125,-973.6328125,-1000.0,0.0
1733383204.9815009,2,-1000.0,-50.78125,-966.30859375,-999.51171875,0.0
1733383204.9970386,2,-1000.0,-29.296875,-946.2890625,-997.0703125,0.0
1733383205.0129986,2,-1000.0,-47.8515625,-966.796875,-1000.0,0.0
1733383205.028936,2,-1000.0,-82.51953125,-953.125,-947.265625,0.0
1733383205.0448833,2,-1000.0,-54.6875,-879.8828125,-794.921875,0.0
1733383205.060843,2,-1000.0,-28.80859375,-838.8671875,-690.91796875,0.0
1733383205.0765765,2,-1000.0,-20.99609375,-883.7890625,-566.89453125,0.0
1733383205.0917654,2,-998.046875,4.39453125,-879.8828125,-432.6171875,0.0
1733383205.10673,2,-997.55859375,28.3203125,-790.52734375,-340.8203125,0.0
1733383205.1225564,2,-981.4453125,149.4140625,-790.0390625,-97.65625,0.0
1733383205.1385732,2,-829.58984375,115.72265625,-797.8515625,130.37109375,0.0
1733383205.1542082,2,-607.421875,-110.3515625,-829.58984375,229.00390625,0.0
1733383205.1699286,2,-468.75,-113.28125,-877.9296875,369.62890625,0.0
1733383205.1854405,2,-466.30859375,-62.98828125,-830.56640625,490.234375,0.0
1733383205.200847,2,-479.4921875,-61.5234375,-873.53515625,500.48828125,0.0
1733383205.2165937,2,-610.83984375,-73.2421875,-877.44140625,440.91796875,0.0
1733383205.2318418,2,-869.140625,-58.59375,-715.8203125,295.41015625,0.0
1733383205.2468429,2,-966.796875,-17.08984375,-709.9609375,207.51953125,0.0
1733383205.2626107,2,-997.55859375,-20.5078125,-700.1953125,159.1796875,0.0
1733383205.2781048,2,-999.0234375,-72.265625,-617.67578125,36.62109375,0.0
1733383205.2928946,2,-1000.0,-67.87109375,-535.64453125,-85.9375,0.0
1733383205.3087,2,-1000.0,-60.546875,-556.15234375,-266.6015625,0.0
1733383205.3238962,2,-1000.0,-73.2421875,-495.1171875,-450.68359375,0.0
1733383205.3392932,2,-1000.0,-72.265625,-406.25,-551.26953125,0.0
1733383205.354957,2,-1000.0,-85.9375,-433.59375,-623.046875,0.0
1733383205.3699672,2,-1000.0,-99.12109375,-414.0625,-649.90234375,0.0
1733383205.385959,2,-1000.0,-115.72265625,-429.6875,-611.328125,0.0
1733383205.401241,2,-995.60546875,-70.3125,-318.359375,-767.08984375,0.0
1733383205.4161823,2,-1000.0,-33.203125,-56.15234375,-917.96875,0.0
1733383205.4322655,2,-972.65625,-50.78125,-41.015625,-922.36328125,0.0
1733383205.4471486,2,-816.40625,-46.875,-110.83984375,-963.37890625,0.0
1733383205.4625819,2,-630.37109375,-49.8046875,32.2265625,-1000.0,0.0
1733383205.4776947,2,-462.890625,-33.69140625,108.88671875,-999.0234375,0.0
1733383205.4926622,2,-270.5078125,4.39453125,-106.4453125,-1000.0,0.0
1733383205.5079067,2,-138.671875,-3.90625,-187.01171875,-1000.0,0.0
1733383205.5231493,2,-4.8828125,-22.94921875,43.45703125,-1000.0,0.0
1733383205.5388613,2,33.203125,-14.16015625,-104.4921875,-1000.0,0.0
1733383205.5542498,2,102.5390625,15.625,-397.94921875,-1000.0,0.0
1733383205.5689523,2,194.82421875,31.73828125,-350.09765625,-1000.0,0.0
1733383205.5849023,2,200.1953125,1.953125,79.1015625,-1000.0,0.0
1733383205.5998497,2,357.91015625,-11.71875,70.80078125,-1000.0,0.0
1733383205.615062,2,461.42578125,-25.390625,-104.4921875,-1000.0,0.0
1733383205.6307173,2,586.9140625,-18.5546875,-63.96484375,-1000.0,0.0
1733383205.6470013,2,723.6328125,10.25390625,88.8671875,-1000.0,0.0
1733383205.6619108,2,757.32421875,-31.25,-14.6484375,-1000.0,0.0
1733383205.6774168,2,781.73828125,-40.52734375,-220.703125,-1000.0,0.0
1733383205.6930814,2,873.53515625,8.30078125,-221.19140625,-1000.0,0.0
1733383205.7084863,2,971.19140625,4.39453125,-209.9609375,-1000.0,0.0
1733383205.7242508,2,963.37890625,-14.16015625,-305.17578125,-1000.0,0.0
1733383205.740321,2,963.37890625,-23.4375,-417.96875,-1000.0,0.0
1733383205.7553613,2,965.8203125,-40.0390625,-331.0546875,-1000.0,0.0
1733383205.7708437,2,965.33203125,-49.31640625,-231.4453125,-1000.0,0.0
1733383205.7865956,2,965.33203125,-17.08984375,-125.9765625,-1000.0,0.0
1733383205.8023572,2,965.33203125,-18.5546875,-2.9296875,-1000.0,0.0
1733383205.81815,2,965.33203125,-60.05859375,102.05078125,-1000.0,0.0
1733383205.833572,2,965.33203125,-64.94140625,124.51171875,-1000.0,0.0
1733383205.8488712,2,965.33203125,-65.91796875,60.05859375,-1000.0,0.0
1733383205.8642967,2,965.33203125,-72.265625,44.43359375,-1000.0,0.0
1733383205.87915,2,965.33203125,-67.87109375,149.90234375,-1000.0,0.0
1733383205.894311,2,965.33203125,-44.43359375,179.19921875,-1000.0,0.0
1733383205.910701,2,965.33203125,-41.9921875,-69.82421875,-1000.0,0.0
1733383205.9266858,2,965.33203125,-56.15234375,-236.328125,-1000.0,0.0
1733383205.9424329,2,965.33203125,-31.73828125,75.68359375,-1000.0,0.0
1733383205.9583035,2,965.33203125,-6.8359375,131.8359375,-1000.0,0.0
1733383205.9735446,2,965.33203125,-17.08984375,-145.5078125,-1000.0,0.0
1733383205.988638,2,965.33203125,-38.0859375,-259.765625,-999.51171875,0.0
1733383206.0042763,2,965.33203125,-57.6171875,-289.55078125,-995.60546875,0.0
1733383206.0196416,2,965.33203125,-54.19921875,-404.78515625,-1000.0,0.0
1733383206.0355203,2,965.33203125,-51.26953125,-507.32421875,-918.9453125,0.0
1733383206.0504675,2,965.33203125,-49.31640625,-525.390625,-757.32421875,0.0
1733383206.0663183,2,965.33203125,-11.23046875,-609.86328125,-684.5703125,0.0
1733383206.0819468,2,965.33203125,-56.15234375,-723.6328125,-566.89453125,0.0
1733383206.0976827,2,965.33203125,-94.23828125,-806.15234375,-405.76171875,0.0
1733383206.112515,2,965.33203125,-32.71484375,-848.14453125,-358.88671875,0.0
1733383206.1277666,2,965.33203125,-27.34375,-881.34765625,-396.97265625,0.0
1733383206.142914,2,965.8203125,-34.66796875,-925.29296875,-430.6640625,0.0
1733383206.1587262,2,960.44921875,-36.62109375,-963.8671875,-466.796875,0.0
1733383206.1744356,2,973.6328125,-62.01171875,-936.5234375,-575.1953125,0.0
1733383206.1905165,2,920.41015625,-45.41015625,-964.84375,-595.703125,0.0
1733383206.2062669,2,824.70703125,-57.6171875,-968.26171875,-570.80078125,0.0
1733383206.2209473,2,730.95703125,-39.55078125,-975.5859375,-538.57421875,0.0
1733383206.2360992,2,657.71484375,-25.87890625,-973.14453125,-459.47265625,0.0
1733383206.251063,2,536.1328125,-41.015625,-966.30859375,-374.51171875,0.0
1733383206.2664173,2,324.70703125,-32.71484375,-983.3984375,-251.953125,0.0
1733383206.2817056,2,183.10546875,-29.296875,-998.53515625,-128.90625,0.0
1733383206.297076,2,-54.6875,-33.203125,-989.2578125,-137.6953125,0.0
1733383206.3124285,2,-266.11328125,-28.3203125,-974.12109375,-174.8046875,0.0
1733383206.3279774,2,-339.84375,-47.8515625,-996.58203125,-54.19921875,0.0
1733383206.3436117,2,-662.109375,-64.453125,-991.69921875,15.625,0.0
1733383206.3590715,2,-999.51171875,-43.45703125,-968.75,45.8984375,0.0
1733383206.3740852,2,-998.046875,-23.4375,-977.05078125,279.296875,0.0
1733383206.389884,2,-992.67578125,-11.23046875,-973.6328125,389.16015625,0.0
1733383206.4061992,2,-1000.0,-15.13671875,-962.890625,401.85546875,0.0
1733383206.421981,2,-1000.0,-42.48046875,-962.40234375,479.4921875,0.0
1733383206.438509,2,-1000.0,-44.43359375,-975.09765625,604.98046875,0.0
1733383206.4544315,2,-1000.0,-44.43359375,-985.83984375,668.9453125,0.0
1733383206.4696953,2,-1000.0,-53.7109375,-982.421875,629.8828125,0.0
1733383206.4850314,2,-1000.0,-15.625,-985.3515625,570.3125,0.0
1733383206.500981,2,-1000.0,7.8125,-994.62890625,609.86328125,0.0
1733383206.5161393,2,-1000.0,-1.953125,-987.79296875,773.92578125,0.0
1733383206.5312712,2,-1000.0,-25.390625,-966.30859375,772.94921875,0.0
1733383206.5465682,2,-1000.0,-15.13671875,-962.890625,850.09765625,0.0
1733383206.5616467,2,-1000.0,9.765625,-972.65625,979.00390625,0.0
1733383206.577087,2,-1000.0,18.06640625,-980.95703125,961.42578125,0.0
1733383206.5919757,2,-1000.0,9.27734375,-957.51953125,964.35546875,0.0
1733383206.6080186,2,-1000.0,3.90625,-949.70703125,966.30859375,0.0
1733383206.6234145,2,-1000.0,-1.953125,-946.2890625,965.8203125,0.0
1733383206.638447,2,-1000.0,-10.25390625,-941.40625,965.33203125,0.0
1733383206.654391,2,-1000.0,-3.90625,-958.984375,965.8203125,0.0
1733383206.6691532,2,-1000.0,-11.23046875,-947.75390625,965.8203125,0.0
1733383206.6848924,2,-1000.0,-3.41796875,-981.4453125,965.8203125,0.0
1733383206.701042,2,-1000.0,-0.9765625,-969.7265625,965.8203125,0.0
1733383206.7164853,2,-1000.0,-7.32421875,-908.69140625,965.8203125,0.0
1733383206.7313163,2,-1000.0,23.92578125,-932.6171875,965.8203125,0.0
1733383206.7468047,2,-1000.0,41.015625,-953.61328125,965.8203125,0.0
1733383206.762413,2,-993.65234375,36.62109375,-926.26953125,965.8203125,0.0
1733383206.7790163,2,-1000.0,46.38671875,-919.43359375,965.8203125,0.0
1733383206.7942793,2,-957.03125,62.98828125,-949.21875,966.30859375,0.0
1733383206.8096683,2,-746.09375,52.734375,-956.0546875,965.8203125,0.0
1733383206.8257616,2,-517.578125,30.2734375,-962.40234375,964.35546875,0.0
1733383206.8418677,2,-316.40625,34.66796875,-979.98046875,965.33203125,0.0
1733383206.857882,2,-161.1328125,30.76171875,-986.81640625,964.35546875,0.0
1733383206.8735406,2,-71.77734375,23.4375,-980.95703125,931.640625,0.0
1733383206.8891807,2,-15.13671875,35.64453125,-961.9140625,910.64453125,0.0
1733383206.9042585,2,100.5859375,38.57421875,-957.51953125,936.5234375,0.0
1733383206.919318,2,283.69140625,41.015625,-988.28125,969.23828125,0.0
1733383206.9353304,2,365.234375,39.0625,-981.4453125,934.5703125,0.0
1733383206.9514303,2,261.71875,20.99609375,-943.359375,850.5859375,0.0
1733383206.9670885,2,202.1484375,7.8125,-940.91796875,824.21875,0.0
1733383206.9818258,2,273.4375,15.625,-939.94140625,835.9375,0.0
1733383206.9977274,2,302.734375,-1.953125,-945.3125,790.0390625,0.0
1733383207.012861,2,279.78515625,-1.46484375,-940.4296875,699.70703125,0.0
1733383207.0285685,2,337.890625,17.578125,-949.21875,687.01171875,0.0
1733383207.0440981,2,424.31640625,17.578125,-978.02734375,771.484375,0.0
1733383207.0591595,2,418.9453125,-3.90625,-977.5390625,728.02734375,0.0
1733383207.074396,2,354.4921875,19.53125,-922.8515625,564.453125,0.0
1733383207.0900812,2,431.15234375,53.7109375,-947.265625,572.75390625,0.0
1733383207.1055434,2,492.1875,34.1796875,-961.9140625,648.92578125,0.0
1733383207.120413,2,559.08203125,20.99609375,-937.5,602.5390625,0.0
1733383207.1355474,2,632.8125,45.8984375,-954.1015625,560.546875,0.0
1733383207.151138,2,686.5234375,24.90234375,-969.23828125,650.390625,0.0
1733383207.1664722,2,755.37109375,15.625,-950.68359375,660.64453125,0.0
1733383207.1817229,2,864.74609375,47.8515625,-917.96875,607.91015625,0.0
1733383207.1972942,2,950.68359375,38.57421875,-915.0390625,583.984375,0.0
1733383207.2132695,2,962.890625,24.4140625,-939.453125,610.3515625,0.0
1733383207.2292373,2,964.35546875,29.296875,-935.05859375,695.3125,0.0
1733383207.2447877,2,964.84375,40.52734375,-900.390625,687.01171875,0.0
1733383207.260419,2,965.33203125,34.1796875,-813.4765625,583.49609375,0.0
1733383207.276219,2,965.33203125,18.06640625,-841.796875,562.5,0.0
1733383207.2920275,2,965.33203125,17.578125,-843.26171875,597.16796875,0.0
1733383207.307362,2,965.33203125,20.99609375,-732.91015625,598.14453125,0.0
1733383207.3224697,2,965.33203125,20.5078125,-708.49609375,589.35546875,0.0
1733383207.3377225,2,965.33203125,3.41796875,-726.07421875,601.07421875,0.0
1733383207.3528993,2,965.33203125,-1.953125,-718.75,625.48828125,0.0
1733383207.368438,2,965.33203125,13.671875,-692.3828125,633.7890625,0.0
1733383207.3840222,2,965.33203125,3.41796875,-705.078125,590.8203125,0.0
1733383207.3997562,2,965.33203125,-14.16015625,-782.2265625,611.328125,0.0
1733383207.4143329,2,965.33203125,-53.7109375,-792.96875,551.26953125,0.0
1733383207.4306188,2,965.33203125,-33.69140625,-577.63671875,408.203125,0.0
1733383207.4461114,2,965.33203125,26.85546875,-602.5390625,408.69140625,0.0
1733383207.4615386,2,965.33203125,26.85546875,-657.2265625,364.2578125,0.0
1733383207.476873,2,965.33203125,12.6953125,-580.56640625,309.5703125,0.0
1733383207.4931545,2,965.33203125,6.34765625,-536.1328125,319.82421875,0.0
1733383207.509101,2,965.33203125,7.32421875,-538.57421875,329.1015625,0.0
1733383207.5250356,2,965.33203125,-7.8125,-551.26953125,283.69140625,0.0
1733383207.540748,2,965.33203125,-25.390625,-461.42578125,173.33984375,0.0
1733383207.5562873,2,965.33203125,-22.4609375,-391.11328125,74.21875,0.0
1733383207.5720882,2,965.33203125,-0.9765625,-380.37109375,72.75390625,0.0
1733383207.5868342,2,965.33203125,15.625,-478.515625,111.81640625,0.0
1733383207.6018417,2,964.84375,6.34765625,-442.3828125,-15.625,0.0
1733383207.6175337,2,964.84375,16.6015625,-395.01953125,-141.6015625,0.0
1733383207.6322997,2,964.84375,19.53125,-414.0625,-147.94921875,0.0
1733383207.6481895,3,965.33203125,2.44140625,-395.01953125,-213.37890625,0.0
1733383207.6640174,3,965.33203125,-3.41796875,-217.28515625,-323.73046875,0.0
1733383207.6796203,3,965.33203125,8.7890625,-133.30078125,-356.4453125,0.0
1733383207.6954038,3,965.33203125,17.08984375,-295.8984375,-325.1953125,0.0
1733383207.711008,3,960.44921875,-13.671875,-404.296875,-351.5625,0.0
1733383207.726953,3,975.5859375,-30.2734375,-285.15625,-419.43359375,0.0
1733383207.7430615,3,914.55078125,-13.18359375,-272.4609375,-441.40625,0.0
1733383207.758933,3,814.94140625,-13.671875,-382.8125,-406.25,0.0
1733383207.774371,3,784.66796875,-4.8828125,-440.91796875,-402.83203125,0.0
1733383207.789674,3,556.15234375,4.8828125,-386.23046875,-488.76953125,0.0
1733383207.805142,3,354.4921875,-15.13671875,-296.875,-577.63671875,0.0
1733383207.8206482,3,328.61328125,-25.87890625,-538.0859375,-479.00390625,0.0
1733383207.8361309,3,184.08203125,-30.2734375,-604.00390625,-458.0078125,0.0
1733383207.851317,3,-14.16015625,-21.97265625,-413.57421875,-613.76953125,0.0
1733383207.8662148,3,-101.07421875,-35.64453125,-454.58984375,-595.703125,0.0
1733383207.8822265,3,-222.65625,-58.10546875,-438.96484375,-581.54296875,0.0
1733383207.8977387,3,-356.4453125,-65.4296875,-387.20703125,-587.40234375,0.0
1733383207.91299,3,-386.23046875,-56.15234375,-373.53515625,-597.65625,0.0
1733383207.9278572,3,-424.31640625,-37.109375,-416.50390625,-599.609375,0.0
1733383207.9432878,3,-508.7890625,-29.296875,-457.03125,-582.03125,0.0
1733383207.9586263,3,-534.1796875,-31.25,-490.72265625,-590.8203125,0.0
1733383207.974118,3,-587.40234375,-43.9453125,-518.06640625,-590.8203125,0.0
1733383207.9900622,3,-627.44140625,-36.62109375,-562.5,-595.703125,0.0
1733383208.0052557,3,-615.234375,-36.62109375,-613.28125,-597.65625,0.0
1733383208.0206003,3,-751.46484375,-49.31640625,-516.6015625,-668.45703125,0.0
1733383208.0364058,3,-801.7578125,-37.109375,-426.7578125,-690.4296875,0.0
1733383208.0516486,3,-768.06640625,-31.73828125,-528.3203125,-631.8359375,0.0
1733383208.0674262,3,0.0,-41.9921875,-614.74609375,-619.62890625,0.0
1733383208.082398,3,0.0,-76.66015625,-467.28515625,-647.4609375,0.0
1733383208.0982351,3,0.0,-64.453125,-407.71484375,-625.9765625,0.0
1733383208.1140451,3,0.0,-10.25390625,-459.9609375,-649.90234375,0.0
1733383208.1301563,3,0.0,-4.39453125,-490.234375,-672.8515625,0.0
1733383208.1455088,3,0.0,-11.71875,-504.39453125,-673.33984375,0.0
1733383208.1602204,3,0.0,-22.4609375,-421.875,-682.6171875,0.0
1733383208.175385,3,0.0,-36.1328125,-560.05859375,-591.796875,0.0
1733383208.1900828,3,0.0,-52.734375,-574.70703125,-618.65234375,0.0
1733383208.2052317,3,0.0,-34.1796875,-308.10546875,-742.1875,0.0
1733383208.2201233,3,0.0,-44.43359375,-342.28515625,-629.8828125,0.0
1733383208.2350643,3,0.0,-85.44921875,-409.1796875,-569.82421875,0.0
1733383208.2506528,3,-645.01953125,-23.92578125,-380.859375,-620.60546875,0.0
1733383208.265875,3,-720.21484375,11.71875,-362.79296875,-604.98046875,0.0
1733383208.2805927,3,-621.09375,-1.953125,-411.62109375,-542.48046875,0.0
1733383208.2962072,3,-561.03515625,-1.46484375,-404.296875,-536.1328125,0.0
1733383208.312061,3,-614.2578125,-8.7890625,-395.5078125,-588.8671875,0.0
1733383208.3280141,3,-785.15625,-22.4609375,-438.4765625,-574.70703125,0.0
1733383208.3439586,3,-884.765625,-9.765625,-466.30859375,-520.5078125,0.0
1733383208.3591182,3,-684.5703125,-23.4375,-491.2109375,-431.15234375,0.0
1733383208.374775,3,-700.1953125,-46.38671875,-391.11328125,-435.05859375,0.0
1733383208.3904073,3,-752.44140625,-9.765625,-307.12890625,-461.42578125,0.0
1733383208.405858,3,-625.9765625,-21.484375,-420.8984375,-396.97265625,0.0
1733383208.421664,3,-521.484375,-30.76171875,-457.51953125,-353.515625,0.0
1733383208.437422,3,-541.015625,3.90625,-343.75,-301.7578125,0.0
1733383208.4537532,3,-557.6171875,9.765625,-342.28515625,-259.27734375,0.0
1733383208.4689827,3,-443.359375,-12.20703125,-412.109375,-243.65234375,0.0
1733383208.4851205,3,-379.39453125,-14.16015625,-418.45703125,-208.49609375,0.0
1733383208.5007858,3,-395.01953125,25.390625,-339.35546875,-137.20703125,0.0
1733383208.5164285,3,-375.48828125,25.87890625,-364.74609375,-61.03515625,0.0
1733383208.532601,3,-297.8515625,19.53125,-524.90234375,36.62109375,0.0
1733383208.5484977,3,-236.81640625,13.18359375,-544.921875,125.48828125,0.0
1733383208.5641155,3,-344.7265625,12.20703125,-286.62109375,91.796875,0.0
1733383208.5797522,3,-323.73046875,39.55078125,-326.66015625,164.55078125,0.0
1733383208.5961132,3,-251.46484375,26.3671875,-389.6484375,302.24609375,0.0
1733383208.611704,3,-305.17578125,-8.30078125,-366.2109375,366.69921875,0.0
1733383208.6276493,3,-349.609375,-12.6953125,-329.1015625,438.96484375,0.0
1733383208.6432524,3,-375.48828125,5.37109375,-386.71875,530.2734375,0.0
1733383208.6588302,3,-412.109375,15.625,-426.7578125,641.11328125,0.0
1733383208.674244,3,-431.640625,3.41796875,-389.6484375,669.43359375,0.0
1733383208.6893084,3,-413.0859375,-2.9296875,-443.359375,638.671875,0.0
1733383208.7046087,3,-412.59765625,-7.8125,-534.66796875,702.1484375,0.0
1733383208.719983,3,-343.26171875,-34.66796875,-633.30078125,777.83203125,0.0
1733383208.7350051,3,-426.7578125,-36.1328125,-558.59375,756.8359375,0.0
1733383208.7505925,3,-596.19140625,-16.11328125,-480.46875,764.16015625,0.0
1733383208.7658432,3,-537.109375,-13.671875,-576.171875,889.16015625,0.0
1733383208.7812643,3,-536.62109375,0.9765625,-609.375,864.2578125,0.0
1733383208.7964785,3,-610.83984375,2.9296875,-535.64453125,872.55859375,0.0
1733383208.8121507,3,-594.23828125,4.8828125,-536.62109375,957.03125,0.0
1733383208.8276126,3,-564.94140625,11.23046875,-603.02734375,962.40234375,0.0
1733383208.8427415,3,-569.82421875,-30.2734375,-641.6015625,964.35546875,0.0
1733383208.8581266,3,-597.16796875,-40.52734375,-575.1953125,965.33203125,0.0
1733383208.8733675,3,-614.2578125,-7.32421875,-597.16796875,965.33203125,0.0
1733383208.8892384,3,-529.78515625,-21.97265625,-776.3671875,965.8203125,0.0
1733383208.9045618,3,-501.953125,-51.7578125,-798.828125,965.8203125,0.0
1733383208.9201887,3,-549.31640625,-31.25,-624.51171875,965.8203125,0.0
1733383208.9361007,3,-469.23828125,9.27734375,-660.15625,965.8203125,0.0
1733383208.9518623,3,-442.87109375,-7.8125,-750.0,965.8203125,0.0
1733383208.9678054,3,-514.6484375,-32.71484375,-680.17578125,965.8203125,0.0
1733383208.982944,3,-514.6484375,-24.90234375,-666.9921875,965.8203125,0.0
1733383208.9979262,3,0.0,-24.4140625,-717.28515625,965.33203125,0.0
1733383209.0134108,3,0.0,-29.78515625,-671.875,965.8203125,0.0
1733383209.0285897,3,0.0,-19.04296875,-615.72265625,965.8203125,0.0
1733383209.0440648,3,0.0,-15.625,-635.25390625,965.33203125,0.0
1733383209.0597396,3,0.0,-50.29296875,-664.0625,965.8203125,0.0
1733383209.0747845,3,0.0,-51.26953125,-690.91796875,965.8203125,0.0
1733383209.0906644,3,0.0,-7.32421875,-678.7109375,965.8203125,0.0
1733383209.1061585,3,0.0,7.8125,-643.06640625,965.33203125,0.0
1733383209.1214924,3,0.0,-19.04296875,-646.97265625,965.33203125,0.0
1733383209.1370523,3,0.0,-34.1796875,-683.59375,966.30859375,0.0
1733383209.1523466,3,0.0,-8.30078125,-545.41015625,959.9609375,0.0
1733383209.1675441,3,0.0,-2.9296875,-493.1640625,943.84765625,0.0
1733383209.1835077,3,-179.6875,-20.01953125,-597.65625,951.171875,0.0
1733383209.1988747,3,-164.0625,-28.80859375,-603.02734375,926.26953125,0.0
1733383209.2143927,3,-131.34765625,-30.76171875,-499.51171875,895.01953125,0.0
1733383209.2303412,3,-68.359375,-23.92578125,-456.0546875,873.046875,0.0
1733383209.2452862,3,-64.453125,-20.01953125,-455.56640625,835.44921875,0.0
1733383209.2603154,3,-15.13671875,-44.921875,-536.62109375,824.70703125,0.0
1733383209.2757022,3,8.30078125,-63.96484375,-485.83984375,793.9453125,0.0
1733383209.2906523,3,-41.9921875,-51.7578125,-357.421875,754.39453125,0.0
1733383209.306638,3,55.6640625,-39.55078125,-559.5703125,832.51953125,0.0
1733383209.3219955,3,85.44921875,-50.78125,-609.86328125,811.5234375,0.0
1733383209.337286,3,-28.80859375,-44.43359375,-383.7890625,657.71484375,0.0
1733383209.3526516,3,-20.99609375,-13.18359375,-425.78125,690.4296875,0.0
1733383209.3676944,3,-36.1328125,-4.8828125,-473.6328125,734.375,0.0
1733383209.3841214,3,-52.24609375,-16.11328125,-427.24609375,685.546875,0.0
1733383209.3994913,3,-47.36328125,-30.76171875,-418.45703125,607.421875,0.0
1733383209.4150932,3,-9.27734375,-42.96875,-416.015625,609.375,0.0
1733383209.4306054,3,-12.6953125,-42.96875,-478.02734375,632.32421875,0.0
1733383209.4463875,3,21.97265625,-41.9921875,-522.94921875,602.05078125,0.0
1733383209.4623616,3,-3.41796875,-46.38671875,-527.34375,556.640625,0.0
1733383209.4782207,3,-89.84375,-57.12890625,-564.453125,541.015625,0.0
1733383209.493307,3,-71.2890625,-57.6171875,-541.015625,519.53125,0.0
1733383209.5092545,3,-127.44140625,-37.59765625,-465.33203125,452.1484375,0.0
1733383209.5243127,3,-178.22265625,-28.3203125,-439.453125,425.29296875,0.0
1733383209.539261,3,-115.234375,-34.66796875,-619.140625,460.9375,0.0
1733383209.5546038,3,-82.03125,-45.8984375,-655.76171875,491.69921875,0.0
1733383209.570149,3,-108.3984375,-49.8046875,-461.42578125,411.1328125,0.0
1733383209.5860264,3,-128.90625,-27.83203125,-469.7265625,356.4453125,0.0
1733383209.601463,3,-174.8046875,-25.390625,-549.8046875,397.4609375,0.0
1733383209.616878,3,-164.0625,-46.38671875,-516.11328125,387.6953125,0.0
1733383209.6318731,3,-149.90234375,-51.26953125,-566.40625,384.27734375,0.0
1733383209.647035,3,-171.38671875,-35.64453125,-605.46875,363.28125,0.0
1733383209.662036,3,-120.60546875,-25.390625,-693.359375,375.48828125,0.0
1733383209.6778672,3,-82.51953125,-39.55078125,-708.984375,372.55859375,0.0
1733383209.692878,3,-121.58203125,-23.92578125,-497.0703125,297.36328125,0.0
1733383209.7080374,3,-90.33203125,-13.671875,-540.0390625,312.5,0.0
1733383209.723882,3,-124.0234375,-19.53125,-575.1953125,299.8046875,0.0
1733383209.7392256,3,-141.6015625,-29.296875,-525.87890625,290.52734375,0.0
1733383209.754601,3,-124.0234375,-34.1796875,-490.234375,246.09375,0.0
1733383209.7693353,3,-119.140625,-19.04296875,-552.734375,211.42578125,0.0
1733383209.7852318,3,-130.37109375,-25.390625,-572.75390625,187.98828125,0.0
1733383209.800599,3,-136.71875,-29.296875,-564.453125,164.0625,0.0
1733383209.8163428,3,-77.63671875,-42.48046875,-612.79296875,207.51953125,0.0
1733383209.831987,3,-132.32421875,-55.6640625,-606.4453125,227.5390625,0.0
1733383209.8471982,3,-148.4375,-73.2421875,-632.32421875,238.28125,0.0
1733383209.862598,3,-134.765625,-76.66015625,-541.015625,128.90625,0.0
1733383209.8789415,3,-180.17578125,-22.94921875,-463.37890625,87.40234375,0.0
1733383209.8943052,3,-118.1640625,-20.99609375,-586.9140625,163.0859375,0.0
1733383209.9090562,3,-76.66015625,-42.96875,-608.3984375,120.1171875,0.0
1733383209.9242294,3,-112.3046875,-17.08984375,-514.16015625,55.6640625,0.0
1733383209.9393837,3,-69.3359375,-9.765625,-510.7421875,84.9609375,0.0
1733383209.95457,3,-11.23046875,-27.83203125,-569.3359375,164.0625,0.0
1733383209.9700332,3,-57.12890625,-45.41015625,-582.51953125,127.9296875,0.0
1733383209.9852867,3,-87.40234375,-41.50390625,-540.52734375,80.078125,0.0
1733383210.0008976,3,-17.08984375,-23.92578125,-576.171875,108.88671875,0.0
1733383210.016053,3,85.44921875,-29.296875,-694.3359375,150.390625,0.0
1733383210.0310693,3,45.8984375,-53.22265625,-688.4765625,118.1640625,0.0
1733383210.0462868,3,-76.171875,-45.41015625,-440.91796875,-17.578125,0.0
1733383210.0615292,3,-0.48828125,-10.7421875,-487.79296875,-27.34375,0.0
1733383210.07715,3,42.48046875,-21.97265625,-517.578125,11.23046875,0.0
1733383210.0928712,3,-64.94140625,-47.8515625,-449.21875,-8.7890625,0.0
1733383210.1085107,3,-80.56640625,-28.80859375,-402.34375,-42.48046875,0.0
1733383210.1242063,3,-32.2265625,-14.6484375,-494.140625,-10.25390625,0.0
1733383210.1401515,3,0.48828125,-37.59765625,-500.48828125,42.48046875,0.0
1733383210.155448,3,2.9296875,-61.03515625,-405.2734375,1.46484375,0.0
1733383210.170727,3,-33.69140625,-36.62109375,-452.1484375,-65.91796875,0.0
1733383210.1859295,3,-37.109375,-9.27734375,-526.3671875,-42.96875,0.0
1733383210.2010365,3,55.17578125,-16.11328125,-605.46875,45.8984375,0.0
1733383210.2167003,3,51.7578125,-31.25,-545.41015625,-7.8125,0.0
1733383210.232341,3,-4.39453125,-30.2734375,-410.64453125,-163.57421875,0.0
1733383210.2479126,3,-11.23046875,-22.4609375,-475.5859375,-166.015625,0.0
1733383210.262578,3,-22.4609375,-41.015625,-560.05859375,-72.75390625,0.0
1733383210.2781062,3,-25.390625,-44.921875,-467.28515625,-57.6171875,0.0
1733383210.2941656,3,18.5546875,-28.3203125,-467.7734375,-70.80078125,0.0
1733383210.3098922,3,58.59375,-22.4609375,-565.91796875,-45.41015625,0.0
1733383210.3253973,3,-4.8828125,-31.25,-599.12109375,-62.01171875,0.0
1733383210.3409128,3,-21.484375,-40.52734375,-468.75,-48.828125,0.0
1733383210.3561568,3,7.8125,-41.50390625,-524.90234375,-11.23046875,0.0
1733383210.3718965,3,69.82421875,-34.1796875,-669.43359375,45.41015625,0.0
1733383210.3876667,3,64.453125,-46.38671875,-666.9921875,46.875,0.0
1733383210.4035459,3,46.38671875,-47.36328125,-471.6796875,0.0,0.0
1733383210.418772,3,67.3828125,-27.34375,-489.74609375,17.08984375,0.0
1733383210.4335902,3,42.48046875,-39.0625,-591.30859375,11.23046875,0.0
1733383210.4489157,3,72.75390625,-44.43359375,-564.94140625,-42.96875,0.0
1733383210.463919,3,62.98828125,-37.109375,-468.26171875,-60.05859375,0.0
1733383210.479574,3,49.31640625,-24.90234375,-499.0234375,13.671875,0.0
1733383210.495613,3,68.84765625,-15.13671875,-557.12890625,14.16015625,0.0
1733383210.5110648,3,77.1484375,-15.13671875,-479.98046875,-8.7890625,0.0
1733383210.52613,3,106.93359375,-16.11328125,-479.98046875,20.01953125,0.0
1733383210.5418699,3,158.69140625,-23.92578125,-495.60546875,104.98046875,0.0
1733383210.5576591,4,193.359375,-25.87890625,-551.7578125,146.484375,0.0
1733383210.5735483,4,177.734375,-26.85546875,-555.17578125,134.27734375,0.0
1733383210.5891304,4,159.1796875,-25.390625,-563.4765625,184.08203125,0.0
1733383210.6046808,4,179.19921875,-20.99609375,-549.8046875,170.41015625,0.0
1733383210.620751,4,196.2890625,-27.34375,-551.26953125,166.015625,0.0
1733383210.636828,4,160.15625,-29.296875,-448.73046875,126.46484375,0.0
1733383210.6525767,4,174.8046875,-6.8359375,-407.71484375,133.7890625,0.0
1733383210.6685274,4,222.16796875,-5.859375,-516.11328125,199.70703125,0.0
1733383210.6841502,4,164.55078125,-31.25,-532.2265625,291.9921875,0.0
1733383210.700101,4,136.23046875,-27.83203125,-419.43359375,305.17578125,0.0
1733383210.7155068,4,169.43359375,-17.08984375,-426.26953125,209.9609375,0.0
1733383210.7308471,4,262.6953125,-9.27734375,-495.60546875,331.54296875,0.0
1733383210.7460625,4,308.59375,-23.92578125,-515.625,343.75,0.0
1733383210.7613513,4,252.9296875,-25.87890625,-465.33203125,212.40234375,0.0
1733383210.7769692,4,215.8203125,-4.39453125,-357.91015625,220.703125,0.0
1733383210.7927656,4,332.03125,-19.04296875,-540.0390625,345.703125,0.0
1733383210.8077855,4,404.78515625,-34.66796875,-602.05078125,402.83203125,0.0
1733383210.8235106,4,298.33984375,-30.76171875,-404.296875,326.66015625,0.0
1733383210.8388414,4,216.30859375,-22.94921875,-391.6015625,341.30859375,0.0
1733383210.8537953,4,0.0,-5.37109375,-419.921875,391.11328125,0.0
1733383210.8697371,4,0.0,1.46484375,-261.23046875,357.91015625,0.0
1733383210.8854003,4,0.0,4.8828125,-229.00390625,341.796875,0.0
1733383210.901514,4,0.0,17.578125,-291.9921875,360.3515625,0.0
1733383210.9174995,4,0.0,17.578125,-348.14453125,358.88671875,0.0
1733383210.9332042,4,0.0,2.44140625,-375.48828125,322.75390625,0.0
1733383210.948533,4,0.0,0.48828125,-338.37890625,298.33984375,0.0
1733383210.9635475,4,0.0,8.30078125,-377.9296875,256.8359375,0.0
1733383210.9789078,4,0.0,-4.8828125,-442.3828125,232.421875,0.0
1733383210.9937968,4,0.0,-28.3203125,-280.2734375,215.33203125,0.0
1733383211.0090115,4,0.0,-20.5078125,-117.67578125,219.23828125,0.0
1733383211.0243351,4,0.0,-10.25390625,-294.43359375,250.0,0.0
1733383211.0401604,4,224.12109375,-13.18359375,-388.671875,208.0078125,0.0
1733383211.0556934,4,124.51171875,-22.94921875,-312.5,192.3828125,0.0
1733383211.071012,4,147.94921875,-28.80859375,-243.65234375,194.82421875,0.0
1733383211.086723,4,161.62109375,-26.3671875,-290.0390625,228.02734375,0.0
1733383211.1026065,4,142.578125,-40.0390625,-378.41796875,216.796875,0.0
1733383211.1179278,4,157.2265625,-57.12890625,-413.57421875,145.99609375,0.0
1733383211.1332679,4,150.390625,-44.921875,-371.58203125,162.109375,0.0
1733383211.1485846,4,212.890625,-32.71484375,-375.0,217.28515625,0.0
1733383211.1636388,4,156.73828125,-35.64453125,-348.6328125,163.57421875,0.0
1733383211.1794446,4,12.20703125,-11.71875,-239.2578125,113.28125,0.0
1733383211.1956825,4,66.40625,-9.27734375,-289.55078125,163.57421875,0.0
1733383211.2109232,4,165.52734375,-50.78125,-479.98046875,237.3046875,0.0
1733383211.2258756,4,85.9375,-53.22265625,-449.70703125,159.66796875,0.0
1733383211.241051,4,-20.5078125,-25.390625,-279.78515625,30.76171875,0.0
1733383211.256153,4,-14.16015625,-16.6015625,-367.67578125,23.92578125,0.0
1733383211.271748,4,20.5078125,-20.01953125,-405.76171875,96.6796875,0.0
1733383211.287045,4,10.7421875,-10.7421875,-395.01953125,77.1484375,0.0
1733383211.301987,4,-6.8359375,-6.34765625,-417.96875,-8.30078125,0.0
1733383211.3175514,4,-37.109375,-14.6484375,-449.70703125,12.20703125,0.0
1733383211.3330536,4,12.20703125,-23.92578125,-488.76953125,131.8359375,0.0
1733383211.3490863,4,-11.23046875,-64.94140625,-429.6875,90.33203125,0.0
1733383211.3644004,4,-58.10546875,-52.734375,-343.75,-23.4375,0.0
1733383211.3792448,4,-22.4609375,-3.41796875,-437.01171875,36.62109375,0.0
1733383211.3942063,4,-24.90234375,-10.25390625,-457.03125,17.578125,0.0
1733383211.4093685,4,0.0,-29.296875,-370.60546875,-36.62109375,0.0
1733383211.4252408,4,0.0,-40.52734375,-348.6328125,-46.38671875,0.0
1733383211.4404492,4,0.0,-54.6875,-441.89453125,-1.46484375,0.0
1733383211.4557507,4,0.0,-53.22265625,-457.03125,24.90234375,0.0
1733383211.4716403,4,0.0,-60.05859375,-397.4609375,33.69140625,0.0
1733383211.4863763,4,0.0,-55.6640625,-490.72265625,60.546875,0.0
1733383211.5019524,4,0.0,-49.31640625,-593.26171875,96.6796875,0.0
1733383211.5167441,4,0.0,-80.078125,-601.5625,95.21484375,0.0
1733383211.532693,4,0.0,-58.10546875,-350.09765625,-2.44140625,0.0
1733383211.5486507,4,0.0,-15.13671875,-379.8828125,30.76171875,0.0
1733383211.564613,4,0.0,-14.16015625,-424.8046875,41.50390625,0.0
1733383211.580484,4,0.0,-17.578125,-392.578125,4.39453125,0.0
1733383211.595873,4,13.18359375,-15.625,-358.88671875,43.9453125,0.0
1733383211.610903,4,11.23046875,-28.80859375,-374.51171875,61.03515625,0.0
1733383211.6269712,4,30.76171875,-33.203125,-427.734375,49.8046875,0.0
1733383211.64271,4,17.08984375,-17.08984375,-389.16015625,29.78515625,0.0
1733383211.658264,4,53.7109375,-35.64453125,-364.2578125,25.87890625,0.0
1733383211.6735232,4,125.9765625,-43.45703125,-443.359375,76.171875,0.0
1733383211.6892726,4,163.57421875,-44.43359375,-571.2890625,116.2109375,0.0
1733383211.7043042,4,69.3359375,-57.6171875,-492.67578125,49.31640625,0.0
1733383211.7200668,4,0.9765625,-28.80859375,-361.328125,37.59765625,0.0
1733383211.7353618,4,79.58984375,-33.203125,-445.3125,87.40234375,0.0
1733383211.7507868,4,30.76171875,-49.31640625,-454.1015625,54.6875,0.0
1733383211.7667472,4,-46.38671875,-18.06640625,-360.83984375,11.23046875,0.0
1733383211.7823615,4,-1.953125,-8.7890625,-359.375,13.18359375,0.0
1733383211.7976174,4,97.16796875,-25.87890625,-443.359375,84.9609375,0.0
1733383211.812567,4,59.08203125,-40.52734375,-512.20703125,106.93359375,0.0
1733383211.8285139,4,-20.5078125,-42.96875,-393.5546875,67.87109375,0.0
1733383211.8444595,4,6.34765625,-10.7421875,-372.55859375,86.42578125,0.0
1733383211.8605545,4,101.07421875,-23.4375,-537.109375,178.7109375,0.0
1733383211.8763468,4,92.28515625,-60.05859375,-591.796875,181.15234375,0.0
1733383211.8919604,4,-16.11328125,-73.2421875,-343.75,68.84765625,0.0
1733383211.907532,4,19.53125,-39.55078125,-377.9296875,45.41015625,0.0
1733383211.9232566,4,52.24609375,-5.37109375,-470.21484375,108.3984375,0.0
1733383211.9391067,4,3.41796875,-29.296875,-354.00390625,91.30859375,0.0
1733383211.9543343,4,-16.11328125,-33.69140625,-352.05078125,54.19921875,0.0
1733383211.9695563,4,-21.484375,-20.99609375,-443.359375,94.23828125,0.0
1733383211.9857607,4,37.59765625,-20.5078125,-434.08203125,64.453125,0.0
1733383212.0008068,4,21.97265625,-41.015625,-387.6953125,-0.9765625,0.0
1733383212.0156982,4,-130.37109375,-49.31640625,-393.5546875,-74.70703125,0.0
1733383212.0313368,4,-148.92578125,-45.8984375,-428.7109375,-74.21875,0.0
1733383212.0469224,4,-95.703125,-75.68359375,-467.28515625,-33.69140625,0.0
1733383212.0624564,4,-69.82421875,-96.6796875,-438.96484375,-48.33984375,0.0
1733383212.077711,4,-117.67578125,-77.1484375,-445.80078125,-35.64453125,0.0
1733383212.0929976,4,-142.578125,-65.4296875,-464.35546875,-35.64453125,0.0
1733383212.109067,4,-134.765625,-103.02734375,-514.16015625,-53.22265625,0.0
1733383212.1239042,4,-160.15625,-127.44140625,-395.99609375,-83.984375,0.0
1733383212.139619,4,-152.34375,-68.359375,-332.51953125,-103.515625,0.0
1733383212.1553428,4,-113.28125,-38.0859375,-472.16796875,-48.828125,0.0
1733383212.170888,4,-96.6796875,-58.59375,-482.91015625,-22.94921875,0.0
1733383212.1864672,4,-97.16796875,-52.734375,-361.81640625,-17.08984375,0.0
1733383212.202431,4,-51.26953125,-42.96875,-370.60546875,21.484375,0.0
1733383212.2176943,4,-34.1796875,-50.29296875,-410.64453125,49.31640625,0.0
1733383212.2326405,4,-55.6640625,-66.89453125,-439.94140625,22.94921875,0.0
1733383212.247729,4,-61.03515625,-63.4765625,-404.296875,19.04296875,0.0
1733383212.2627122,4,-89.35546875,-49.31640625,-309.08203125,1.46484375,0.0
1733383212.2782319,4,-21.484375,-41.9921875,-503.41796875,36.1328125,0.0
1733383212.2933784,4,-19.04296875,-43.45703125,-587.890625,35.64453125,0.0
1733383212.3086374,4,-105.46875,-48.828125,-313.4765625,-68.359375,0.0
1733383212.3245897,4,-22.4609375,-47.8515625,-360.83984375,-12.20703125,0.0
1733383212.340114,4,3.90625,-52.734375,-415.52734375,6.8359375,0.0
1733383212.3552523,4,-42.48046875,-62.5,-328.125,-45.41015625,0.0
1733383212.37033,4,-16.11328125,-45.41015625,-355.95703125,-33.69140625,0.0
1733383212.3861473,4,18.5546875,-49.8046875,-367.1875,17.578125,0.0
1733383212.4015477,4,-6.8359375,-72.75390625,-420.41015625,38.0859375,0.0
1733383212.4170454,4,-21.97265625,-53.22265625,-438.4765625,-19.53125,0.0
1733383212.4321842,4,-22.4609375,-35.15625,-399.4140625,-78.61328125,0.0
1733383212.4475977,4,-0.9765625,-30.76171875,-466.796875,-32.2265625,0.0
1733383212.4636693,4,52.24609375,-51.26953125,-489.74609375,21.97265625,0.0
1733383212.479228,4,1.953125,-70.80078125,-391.6015625,-41.9921875,0.0
1733383212.4945312,4,-48.33984375,-71.2890625,-312.5,-93.26171875,0.0
1733383212.509649,4,37.59765625,-49.31640625,-404.78515625,-35.15625,0.0
1733383212.5252407,4,62.98828125,-25.87890625,-357.421875,3.90625,0.0
1733383212.5412328,4,-27.83203125,-29.296875,-257.32421875,-30.2734375,0.0
1733383212.5569031,4,-43.45703125,-42.48046875,-313.96484375,-40.52734375,0.0
1733383212.5725837,4,27.83203125,-40.0390625,-367.67578125,30.2734375,0.0
1733383212.5881176,4,11.23046875,-17.578125,-421.875,48.828125,0.0
1733383212.604071,4,-10.25390625,-13.671875,-464.35546875,20.5078125,0.0
1733383212.618981,4,10.7421875,-19.04296875,-386.23046875,-18.5546875,0.0
1733383212.6345785,4,27.83203125,-18.5546875,-496.09375,15.13671875,0.0
1733383212.6497304,4,13.18359375,-50.29296875,-581.0546875,36.62109375,0.0
1733383212.6652017,4,-96.6796875,-61.5234375,-308.10546875,-92.7734375,0.0
1733383212.6803217,4,-85.44921875,-45.41015625,-320.3125,-86.42578125,0.0
1733383212.6952772,4,-59.5703125,-88.8671875,-374.0234375,-32.71484375,0.0
1733383212.7104418,4,-37.59765625,-76.171875,-329.58984375,0.0,0.0
1733383212.7254064,4,62.01171875,-31.25,-257.8125,-14.16015625,0.0
1733383212.7406266,4,22.4609375,-20.99609375,-304.19921875,-50.29296875,0.0
1733383212.7565804,4,-100.5859375,-26.3671875,-382.32421875,-67.3828125,0.0
1733383212.771987,4,-87.890625,-33.203125,-343.26171875,-35.15625,0.0
1733383212.7872276,4,-12.20703125,-23.92578125,-370.60546875,26.85546875,0.0
1733383212.8026478,4,10.25390625,-34.1796875,-417.96875,23.4375,0.0
1733383212.8183649,4,28.80859375,-71.77734375,-549.31640625,87.40234375,0.0
1733383212.8343334,4,-40.52734375,-79.1015625,-471.6796875,-4.8828125,0.0
1733383212.849281,4,-118.65234375,-39.0625,-250.48828125,-123.53515625,0.0
1733383212.8648307,4,-49.8046875,-28.3203125,-382.8125,-52.24609375,0.0
1733383212.8803225,4,-13.18359375,-41.9921875,-491.69921875,-25.87890625,0.0
1733383212.8956077,4,0.0,-48.828125,-341.30859375,-67.3828125,0.0
1733383212.911198,4,0.0,-68.84765625,-247.55859375,-48.828125,0.0
1733383212.9271412,4,0.0,-69.3359375,-387.20703125,38.0859375,0.0
1733383212.942468,4,0.0,-39.0625,-434.08203125,32.71484375,0.0
1733383212.9581187,4,0.0,-19.04296875,-356.4453125,-14.16015625,0.0
1733383212.973981,4,0.0,-28.3203125,-386.71875,18.06640625,0.0
1733383212.9893334,4,0.0,-66.40625,-490.234375,119.140625,0.0
1733383213.004283,4,0.0,-71.77734375,-510.25390625,99.609375,0.0
1733383213.019235,4,0.0,-40.52734375,-270.5078125,-38.0859375,0.0
1733383213.0351865,4,0.0,-11.23046875,-321.77734375,-2.9296875,0.0
1733383213.0501308,4,0.0,-18.06640625,-346.6796875,31.73828125,0.0
1733383213.065092,4,0.0,-38.57421875,-286.62109375,-7.32421875,0.0
1733383213.0807948,4,-26.3671875,-13.18359375,-227.5390625,-34.1796875,0.0
1733383213.0962276,4,20.99609375,-19.53125,-315.4296875,17.578125,0.0
1733383213.111648,4,82.03125,-60.05859375,-405.2734375,44.43359375,0.0
1733383213.1268992,4,67.3828125,-39.55078125,-304.6875,-6.34765625,0.0
1733383213.141953,4,-3.41796875,-24.4140625,-332.03125,-35.15625,0.0
1733383213.158265,4,-10.7421875,-37.59765625,-413.0859375,10.7421875,0.0
1733383213.1742232,4,63.96484375,-24.4140625,-492.67578125,87.890625,0.0
1733383213.189449,4,39.0625,-42.48046875,-403.3203125,8.7890625,0.0
1733383213.2042809,4,34.66796875,-58.59375,-267.578125,-83.49609375,0.0
1733383213.219495,4,48.33984375,-41.9921875,-316.89453125,-36.62109375,0.0
1733383213.2345634,4,-9.27734375,-21.484375,-346.6796875,22.4609375,0.0
1733383213.250418,4,-34.1796875,-11.23046875,-252.9296875,-1.953125,0.0
1733383213.266426,4,0.0,-32.2265625,-271.97265625,2.44140625,0.0
1733383213.2819338,4,0.0,-60.05859375,-402.34375,49.31640625,0.0
1733383213.2979503,4,0.0,-56.15234375,-446.2890625,7.8125,0.0
1733383213.314017,4,0.0,-62.01171875,-282.71484375,-32.71484375,0.0
1733383213.3295002,4,0.0,-64.453125,-328.61328125,-7.32421875,0.0
1733383213.3449428,4,0.0,-45.8984375,-420.8984375,3.90625,0.0
1733383213.3600652,4,0.0,-38.57421875,-433.59375,61.5234375,0.0
1733383213.3756156,4,0.0,-24.4140625,-336.42578125,53.7109375,0.0
1733383213.3915548,4,0.0,-14.16015625,-260.25390625,-9.765625,0.0
1733383213.4068859,4,0.0,-28.3203125,-508.7890625,57.6171875,0.0
1733383213.422414,4,0.0,-41.9921875,-554.19921875,14.16015625,0.0
1733383213.43763,4,0.0,-31.73828125,-307.6171875,-74.70703125,0.0
1733383213.4531431,4,59.08203125,-57.6171875,-349.12109375,-18.5546875,0.0
1733383213.4690893,4,36.62109375,-62.01171875,-417.48046875,19.53125,0.0
1733383213.484094,4,-23.4375,-36.1328125,-357.91015625,3.90625,0.0
1733383213.4993408,4,-38.0859375,-35.64453125,-355.95703125,4.8828125,0.0
1733383213.514687,4,-3.41796875,-42.96875,-412.109375,37.109375,0.0
1733383213.5301683,4,-10.7421875,-69.3359375,-465.33203125,58.10546875,0.0
1733383213.5456326,4,-44.43359375,-66.89453125,-436.5234375,-11.71875,0.0
1733383213.5605981,4,-10.25390625,-52.24609375,-445.80078125,-47.36328125,0.0
1733383213.5762944,4,26.85546875,-51.7578125,-442.3828125,18.5546875,0.0
1733383213.5914216,4,6.34765625,-42.48046875,-462.40234375,55.6640625,0.0
1733383213.6065996,4,-65.91796875,-29.78515625,-365.72265625,-45.41015625,0.0
1733383213.6216028,4,-99.12109375,-21.97265625,-340.33203125,-99.609375,0.0
1733383213.6372368,4,-38.57421875,-37.109375,-469.7265625,-33.203125,0.0
1733383213.652993,4,-10.7421875,-61.03515625,-465.33203125,17.08984375,0.0
1733383213.667983,5,-38.57421875,-49.8046875,-377.44140625,-15.625,0.0
1733383213.6828074,5,-6.34765625,-54.19921875,-379.8828125,-41.015625,0.0
1733383213.6983507,5,36.1328125,-75.68359375,-439.453125,29.78515625,0.0
1733383213.7130506,5,49.8046875,-58.10546875,-476.5625,70.80078125,0.0
1733383213.7281902,5,14.6484375,-30.2734375,-452.1484375,50.78125,0.0
1733383213.7434716,5,-31.25,-20.99609375,-338.8671875,0.9765625,0.0
1733383213.7594194,5,125.0,-24.90234375,-504.39453125,67.87109375,0.0
1733383213.7754874,5,121.58203125,-39.0625,-577.63671875,82.51953125,0.0
1733383213.7914755,5,-32.71484375,-41.015625,-349.609375,-13.18359375,0.0
1733383213.8069263,5,-40.0390625,-33.203125,-366.69921875,-1.46484375,0.0
1733383213.822062,5,-51.26953125,-36.62109375,-395.99609375,22.94921875,0.0
1733383213.8370132,5,41.9921875,-23.4375,-307.6171875,41.50390625,0.0
1733383213.8519945,5,65.4296875,-24.90234375,-309.08203125,59.5703125,0.0
1733383213.8673604,5,-22.4609375,-47.8515625,-371.58203125,75.1953125,0.0
1733383213.8828323,5,-8.30078125,-50.29296875,-382.8125,71.2890625,0.0
1733383213.8983493,5,28.3203125,-43.9453125,-436.5234375,88.37890625,0.0
1733383213.913098,5,29.78515625,-42.96875,-436.03515625,116.2109375,0.0
1733383213.9282935,5,11.71875,-44.43359375,-436.5234375,59.5703125,0.0
1733383213.944294,5,32.71484375,-61.5234375,-477.5390625,67.3828125,0.0
1733383213.959957,5,33.69140625,-60.05859375,-394.53125,18.06640625,0.0
1733383213.9755998,5,12.20703125,-37.59765625,-313.4765625,-16.6015625,0.0
1733383213.9909782,5,48.828125,-41.50390625,-410.64453125,58.59375,0.0
1733383214.0065815,5,67.87109375,-40.52734375,-444.3359375,52.734375,0.0
1733383214.021671,5,70.3125,-21.97265625,-390.13671875,41.015625,0.0
1733383214.0367284,5,83.984375,-15.625,-335.9375,84.9609375,0.0
1733383214.0528255,5,124.51171875,-31.73828125,-373.53515625,146.97265625,0.0
1733383214.0681217,5,101.07421875,-38.57421875,-422.36328125,113.28125,0.0
1733383214.0838544,5,59.08203125,-35.15625,-431.15234375,72.265625,0.0
1733383214.0994682,5,69.3359375,-35.15625,-414.0625,104.00390625,0.0
1733383214.1147995,5,112.3046875,-32.71484375,-516.6015625,270.01953125,0.0
1733383214.1298954,5,133.7890625,-42.48046875,-562.5,313.4765625,0.0
1733383214.1455956,5,43.9453125,-41.015625,-344.23828125,138.671875,0.0
1733383214.160906,5,121.58203125,-31.25,-364.74609375,212.890625,0.0
1733383214.1760259,5,174.8046875,-38.57421875,-401.3671875,335.9375,0.0
1733383214.1914082,5,99.609375,-47.36328125,-368.65234375,290.0390625,0.0
1733383214.2064266,5,95.21484375,-33.69140625,-320.3125,243.65234375,0.0
1733383214.2223873,5,163.57421875,-41.9921875,-347.65625,296.38671875,0.0
1733383214.2375045,5,160.15625,-66.40625,-382.32421875,333.0078125,0.0
1733383214.2529705,5,122.55859375,-66.40625,-375.9765625,335.9375,0.0
1733383214.2683516,5,152.83203125,-38.0859375,-393.06640625,328.61328125,0.0
1733383214.2837236,5,154.296875,-13.671875,-406.25,309.5703125,0.0
1733383214.299319,5,218.26171875,-25.87890625,-424.31640625,348.6328125,0.0
1733383214.314719,5,173.828125,-28.80859375,-358.3984375,346.6796875,0.0
1733383214.3305833,5,117.1875,-34.66796875,-209.47265625,285.64453125,0.0
1733383214.345728,5,134.27734375,-40.52734375,-274.90234375,286.1328125,0.0
1733383214.3613615,5,145.01953125,-25.390625,-326.171875,271.97265625,0.0
1733383214.377309,5,132.32421875,-10.7421875,-139.16015625,265.625,0.0
1733383214.392645,5,124.0234375,-9.27734375,-112.79296875,307.6171875,0.0
1733383214.407477,5,106.4453125,-24.4140625,-295.8984375,294.921875,0.0
1733383214.422628,5,70.80078125,-25.87890625,-341.30859375,275.87890625,0.0
1733383214.438314,5,76.66015625,-23.4375,-66.89453125,286.1328125,0.0
1733383214.4537628,5,102.5390625,-30.76171875,-176.26953125,294.921875,0.0
1733383214.4695227,5,100.09765625,-54.6875,-460.9375,337.890625,0.0
1733383214.48499,5,107.91015625,-58.10546875,-498.53515625,309.08203125,0.0
1733383214.5005584,5,57.6171875,-38.57421875,-170.8984375,224.12109375,0.0
1733383214.515784,5,-33.203125,-11.23046875,-63.4765625,194.3359375,0.0
1733383214.5310633,5,-60.546875,0.9765625,-303.22265625,163.57421875,0.0
1733383214.5470738,5,-51.7578125,-10.7421875,-352.05078125,157.2265625,0.0
1733383214.562231,5,-36.62109375,-22.94921875,-51.26953125,123.046875,0.0
1733383214.5776136,5,14.16015625,-27.34375,-26.3671875,170.8984375,0.0
1733383214.593378,5,-9.27734375,-33.203125,-257.32421875,192.3828125,0.0
1733383214.6084156,5,-17.08984375,-59.08203125,-267.08984375,102.5390625,0.0
1733383214.6236198,5,25.390625,-59.5703125,-261.23046875,116.69921875,0.0
1733383214.6390598,5,1.46484375,-37.109375,-341.30859375,173.33984375,0.0
1733383214.6544504,5,-7.8125,-40.0390625,-493.65234375,155.76171875,0.0
1733383214.6699812,5,-87.40234375,-49.31640625,-429.6875,84.47265625,0.0
1733383214.6850471,5,-126.953125,-21.484375,-197.75390625,93.26171875,0.0
1733383214.7008975,5,16.11328125,-5.37109375,-278.80859375,203.61328125,0.0
1733383214.7163577,5,-17.578125,-18.5546875,-392.08984375,176.7578125,0.0
1733383214.7323709,5,-164.0625,-24.90234375,-285.64453125,75.1953125,0.0
1733383214.7484944,5,-159.66796875,-22.4609375,-257.8125,76.171875,0.0
1733383214.7645257,5,-74.70703125,-21.484375,-384.765625,207.51953125,0.0
1733383214.779986,5,-92.28515625,-34.1796875,-407.71484375,245.60546875,0.0
1733383214.7958617,5,-140.625,-35.64453125,-234.375,165.52734375,0.0
1733383214.8108122,5,-132.32421875,-28.3203125,-283.203125,152.83203125,0.0
1733383214.8260372,5,-52.24609375,-29.78515625,-476.5625,237.79296875,0.0
1733383214.841359,5,-38.57421875,-44.921875,-539.0625,267.08984375,0.0
1733383214.8562055,5,-189.453125,-33.69140625,-312.01171875,151.85546875,0.0
1733383214.8719084,5,-176.26953125,-15.625,-322.265625,128.90625,0.0
1733383214.8872068,5,-97.65625,-29.296875,-401.3671875,184.08203125,0.0
1733383214.9021006,5,-114.2578125,-31.73828125,-318.359375,187.98828125,0.0
1733383214.9174638,5,-121.58203125,-16.6015625,-319.3359375,145.5078125,0.0
1733383214.9331052,5,-113.76953125,-36.62109375,-427.24609375,150.390625,0.0
1733383214.9491413,5,-105.95703125,-61.03515625,-436.03515625,166.50390625,0.0
1733383214.9646983,5,-152.83203125,-58.10546875,-319.3359375,166.50390625,0.0
1733383214.9801793,5,-173.33984375,-32.71484375,-325.68359375,153.80859375,0.0
1733383214.995274,5,-119.62890625,-23.4375,-367.67578125,166.015625,0.0
1733383215.011615,5,-54.19921875,-38.57421875,-458.0078125,193.84765625,0.0
1733383215.0274127,5,-104.00390625,-44.43359375,-442.87109375,171.38671875,0.0
1733383215.0426097,5,-176.26953125,-23.4375,-371.58203125,105.95703125,0.0
1733383215.058152,5,-165.0390625,-3.41796875,-384.27734375,76.171875,0.0
1733383215.0729384,5,-77.63671875,-18.5546875,-490.234375,143.5546875,0.0
1733383215.0884032,5,-102.5390625,-46.875,-405.76171875,154.296875,0.0
1733383215.1038878,5,-158.69140625,-33.69140625,-326.171875,132.32421875,0.0
1733383215.1186507,5,-122.55859375,-22.4609375,-418.45703125,138.671875,0.0
1733383215.1344154,5,-73.2421875,-42.96875,-443.84765625,125.48828125,0.0
1733383215.1496553,5,-77.63671875,-36.1328125,-355.95703125,111.81640625,0.0
1733383215.1648684,5,-60.05859375,-38.57421875,-403.80859375,153.3203125,0.0
1733383215.1801143,5,-42.48046875,-31.73828125,-476.5625,179.19921875,0.0
1733383215.1955597,5,-65.91796875,-27.34375,-471.6796875,154.296875,0.0
1733383215.2106903,5,-95.21484375,-40.52734375,-394.04296875,130.859375,0.0
1733383215.226471,5,-117.67578125,-27.83203125,-240.234375,106.4453125,0.0
1733383215.2421386,5,-27.83203125,-23.4375,-464.35546875,160.15625,0.0
1733383215.2580006,5,6.8359375,-34.1796875,-546.875,184.5703125,0.0
1733383215.2729166,5,-68.359375,-34.1796875,-279.78515625,65.4296875,0.0
1733383215.2884033,5,-34.66796875,-26.85546875,-303.7109375,77.1484375,0.0
1733383215.3039007,5,-10.7421875,-42.96875,-388.18359375,139.6484375,0.0
1733383215.318821,5,-38.0859375,-61.03515625,-327.1484375,151.85546875,0.0
1733383215.3347592,5,-22.4609375,-46.38671875,-298.33984375,93.75,0.0
1733383215.3507102,5,16.11328125,-39.55078125,-332.03125,97.65625,0.0
1733383215.3667567,5,14.16015625,-34.1796875,-396.484375,204.1015625,0.0
1733383215.3827004,5,74.70703125,-30.76171875,-441.40625,196.2890625,0.0
1733383215.3983767,5,0.0,-36.1328125,-426.7578125,129.8828125,0.0
1733383215.4133434,5,-7.32421875,-20.5078125,-451.171875,140.625,0.0
1733383215.429427,5,105.46875,-21.484375,-485.3515625,200.1953125,0.0
1733383215.445063,5,49.8046875,-26.85546875,-393.5546875,143.5546875,0.0
1733383215.459965,5,3.41796875,-31.25,-298.33984375,41.9921875,0.0
1733383215.4758391,5,64.94140625,-37.109375,-441.40625,90.8203125,0.0
1733383215.4909716,5,128.90625,-46.38671875,-489.74609375,118.65234375,0.0
1733383215.506894,5,95.703125,-48.33984375,-335.9375,76.66015625,0.0
1733383215.522829,5,71.77734375,-9.765625,-312.5,67.87109375,0.0
1733383215.5381904,5,135.25390625,-1.46484375,-430.6640625,117.67578125,0.0
1733383215.5531378,5,133.7890625,-4.8828125,-382.8125,141.11328125,0.0
1733383215.568171,5,96.19140625,9.27734375,-372.0703125,110.3515625,0.0
1733383215.583336,5,113.76953125,-17.08984375,-402.83203125,66.40625,0.0
1733383215.5994024,5,179.6875,-37.109375,-503.41796875,115.72265625,0.0
1733383215.6143546,5,243.1640625,-34.1796875,-568.84765625,176.7578125,0.0
1733383215.6303256,5,194.3359375,-26.3671875,-347.16796875,135.25390625,0.0
1733383215.6462033,5,208.49609375,-8.7890625,-312.01171875,106.4453125,0.0
1733383215.661383,5,238.28125,-32.2265625,-343.75,121.58203125,0.0
1733383215.676878,5,0.0,-50.78125,-242.1875,110.3515625,0.0
1733383215.6924527,5,0.0,-36.1328125,-217.7734375,104.98046875,0.0
1733383215.7075894,5,0.0,-17.08984375,-356.4453125,119.140625,0.0
1733383215.723143,5,0.0,-17.08984375,-359.86328125,87.890625,0.0
1733383215.7385018,5,0.0,-27.34375,-305.17578125,95.703125,0.0
1733383215.7540429,5,0.0,-26.85546875,-382.32421875,166.9921875,0.0
1733383215.7694974,5,0.0,-27.83203125,-410.15625,161.1328125,0.0
1733383215.7850275,5,0.0,-40.52734375,-430.6640625,163.57421875,0.0
1733383215.8007603,5,0.0,-33.69140625,-347.16796875,92.28515625,0.0
1733383215.8163192,5,0.0,-15.13671875,-145.99609375,49.8046875,0.0
1733383215.8318136,5,0.0,-19.04296875,-197.265625,160.64453125,0.0
1733383215.847178,5,0.0,-28.3203125,-287.109375,167.48046875,0.0
1733383215.8623333,5,284.1796875,-26.85546875,-245.1171875,89.84375,0.0
1733383215.877963,5,299.8046875,-15.13671875,-107.91015625,80.56640625,0.0
1733383215.8939073,5,343.75,-23.4375,-169.921875,156.25,0.0
1733383215.909906,5,346.6796875,-40.52734375,-279.296875,139.6484375,0.0
1733383215.9248044,5,322.75390625,-23.4375,-75.1953125,103.515625,0.0
1733383215.940694,5,314.94140625,-17.08984375,-195.3125,150.87890625,0.0
1733383215.9563913,5,354.00390625,-45.41015625,-424.8046875,215.8203125,0.0
1733383215.9719725,5,364.74609375,-63.96484375,-425.29296875,216.796875,0.0
1733383215.98693,5,297.8515625,-28.3203125,-53.22265625,101.5625,0.0
1733383216.0020921,5,277.83203125,1.46484375,90.33203125,76.171875,0.0
1733383216.017709,5,301.26953125,-17.578125,-115.234375,54.6875,0.0
1733383216.0334182,5,247.0703125,-32.2265625,-176.26953125,6.34765625,0.0
1733383216.0491226,5,139.16015625,-36.62109375,40.0390625,-38.57421875,0.0
1733383216.0649674,5,179.19921875,-39.55078125,-18.5546875,-58.59375,0.0
1733383216.0804439,5,214.84375,-53.22265625,-239.74609375,-54.6875,0.0
1733383216.095624,5,171.875,-64.453125,-270.01953125,-121.09375,0.0
1733383216.1105738,5,131.8359375,-65.4296875,-158.69140625,-208.0078125,0.0
1733383216.1265981,5,127.44140625,-54.6875,-270.01953125,-209.47265625,0.0
1733383216.1417449,5,199.70703125,-62.01171875,-394.53125,-177.734375,0.0
1733383216.1566472,5,185.05859375,-101.07421875,-343.75,-202.1484375,0.0
1733383216.17226,5,120.60546875,-91.796875,-207.51953125,-275.87890625,0.0
1733383216.1882634,5,182.12890625,-63.96484375,-236.81640625,-283.203125,0.0
1733383216.2036185,5,261.23046875,-64.453125,-472.65625,-198.2421875,0.0
1733383216.218575,5,246.58203125,-50.29296875,-348.6328125,-198.2421875,0.0
1733383216.234449,5,192.87109375,-36.62109375,-222.16796875,-239.74609375,0.0
1733383216.2501993,5,203.61328125,-50.29296875,-326.171875,-215.8203125,0.0
1733383216.2650466,5,220.21484375,-63.96484375,-405.76171875,-187.98828125,0.0
1733383216.280516,5,195.80078125,-47.36328125,-242.67578125,-200.1953125,0.0
1733383216.2954676,5,195.3125,-20.99609375,-225.5859375,-179.6875,0.0
1733383216.311416,5,230.95703125,-26.3671875,-479.00390625,-153.3203125,0.0
1733383216.3277862,5,210.9375,-51.26953125,-553.7109375,-130.859375,0.0
1733383216.3438387,5,148.92578125,-52.734375,-326.66015625,-166.9921875,0.0
1733383216.3592267,5,183.10546875,-36.1328125,-272.4609375,-176.7578125,0.0
1733383216.374026,5,254.39453125,-50.29296875,-462.890625,-120.1171875,0.0
1733383216.3892233,5,196.77734375,-48.828125,-461.9140625,-168.45703125,0.0
1733383216.4045794,5,87.40234375,-34.66796875,-290.0390625,-206.54296875,0.0
1733383216.4205804,5,102.5390625,-40.52734375,-312.01171875,-124.0234375,0.0
1733383216.4365778,5,162.59765625,-47.36328125,-437.98828125,-91.30859375,0.0
1733383216.4523888,5,166.50390625,-72.265625,-387.6953125,-152.34375,0.0
1733383216.4677083,5,174.31640625,-79.1015625,-329.58984375,-184.08203125,0.0
1733383216.4832501,5,197.75390625,-55.17578125,-339.35546875,-114.2578125,0.0
1733383216.4984815,5,219.7265625,-34.66796875,-425.29296875,-53.7109375,0.0
1733383216.5139418,5,191.89453125,-29.296875,-438.96484375,-54.6875,0.0
1733383216.5297637,5,149.4140625,-33.69140625,-382.8125,-78.61328125,0.0
1733383216.5452,5,244.140625,-23.92578125,-376.46484375,-9.765625,0.0
1733383216.559841,5,275.390625,-30.76171875,-411.1328125,55.6640625,0.0
1733383216.5749023,5,179.6875,-41.9921875,-318.359375,-2.44140625,0.0
1733383216.589781,5,181.640625,-35.15625,-242.67578125,-16.11328125,0.0
1733383216.6054072,5,218.26171875,-34.1796875,-375.0,65.91796875,0.0
1733383216.6205616,5,235.3515625,-40.0390625,-472.65625,115.234375,0.0
1733383216.6359231,5,179.19921875,-41.015625,-299.31640625,7.8125,0.0
1733383216.6515534,5,170.41015625,-47.36328125,-236.328125,-41.015625,0.0
1733383216.6672995,5,238.76953125,-60.546875,-348.14453125,38.0859375,0.0
1733383216.6830616,5,297.36328125,-71.2890625,-437.01171875,51.7578125,0.0
1733383216.6986907,5,229.98046875,-55.6640625,-358.88671875,-7.32421875,0.0
1733383216.7142744,5,141.6015625,-29.296875,-206.54296875,-41.015625,0.0
1733383216.729348,5,204.1015625,-29.78515625,-406.73828125,56.640625,0.0
1733383216.7445202,5,208.0078125,-49.31640625,-487.3046875,77.1484375,0.0
1733383216.7599304,5,108.88671875,-43.9453125,-275.390625,-4.8828125,0.0
1733383216.7758267,5,118.65234375,-32.71484375,-376.46484375,17.578125,0.0
1733383216.7912679,5,0.0,-51.7578125,-395.01953125,-47.8515625,0.0
1733383216.8062768,5,0.0,-60.05859375,-282.2265625,-31.73828125,0.0
1733383216.8217325,5,0.0,-39.0625,-239.74609375,17.08984375,0.0
1733383216.837109,5,0.0,-41.9921875,-303.22265625,-23.92578125,0.0
1733383216.8527713,5,0.0,-46.38671875,-368.65234375,7.8125,0.0
1733383216.8678446,5,0.0,-27.34375,-391.6015625,62.01171875,0.0
1733383216.8837883,5,0.0,-29.78515625,-348.14453125,65.4296875,0.0
1733383216.8989458,5,0.0,-40.52734375,-353.02734375,67.87109375,0.0
1733383216.9144878,5,0.0,-43.45703125,-409.1796875,150.87890625,0.0
1733383216.9293356,5,0.0,-36.62109375,-274.4140625,152.83203125,0.0
1733383216.944855,5,0.0,-19.04296875,-7.8125,94.23828125,0.0
1733383216.9603472,5,0.0,-19.04296875,-130.859375,118.1640625,0.0
1733383216.975567,5,56.15234375,-23.92578125,-283.203125,128.41796875,0.0
1733383216.990922,5,43.45703125,-23.92578125,-165.52734375,116.2109375,0.0
1733383217.006528,5,96.19140625,-27.83203125,-257.32421875,135.25390625,0.0
1733383217.0222738,5,99.12109375,-29.296875,-401.3671875,165.0390625,0.0
1733383217.038102,5,45.41015625,-34.66796875,-334.47265625,151.3671875,0.0
1733383217.054038,5,60.546875,-38.57421875,-313.4765625,113.28125,0.0
1733383217.069605,6,67.3828125,-36.1328125,-282.2265625,95.21484375,0.0
1733383217.0848646,6,80.078125,-42.96875,-381.34765625,164.0625,0.0
1733383217.09979,6,77.1484375,-53.22265625,-454.1015625,152.34375,0.0
1733383217.115137,6,-13.18359375,-42.48046875,-117.1875,11.23046875,0.0
1733383217.1309109,6,14.16015625,-38.0859375,-34.1796875,62.01171875,0.0
1733383217.146203,6,71.2890625,-43.9453125,-181.640625,121.58203125,0.0
1733383217.161457,6,67.3828125,-44.921875,-290.52734375,93.26171875,0.0
1733383217.177146,6,-8.30078125,-44.43359375,-268.06640625,66.89453125,0.0
1733383217.1928816,6,-27.83203125,-31.25,-314.94140625,72.75390625,0.0
1733383217.2084663,6,5.37109375,-32.71484375,-348.14453125,104.4921875,0.0
1733383217.2243974,6,-34.1796875,-41.50390625,-357.421875,98.14453125,0.0
1733383217.2398207,6,-48.828125,-52.734375,-400.87890625,73.73046875,0.0
1733383217.2556088,6,-38.57421875,-52.24609375,-411.1328125,88.8671875,0.0
1733383217.2712307,6,18.5546875,-56.640625,-506.8359375,144.04296875,0.0
1733383217.2874665,6,-19.04296875,-57.12890625,-453.61328125,83.984375,0.0
1733383217.3031368,6,-114.74609375,-35.15625,-322.75390625,-5.859375,0.0
1733383217.318368,6,-115.234375,-26.85546875,-415.0390625,36.1328125,0.0
1733383217.3333912,6,-117.1875,-28.80859375,-424.8046875,74.21875,0.0
1733383217.3491833,6,-130.37109375,-32.2265625,-322.265625,42.96875,0.0
1733383217.3643992,6,-117.1875,-33.203125,-327.1484375,30.76171875,0.0
1733383217.3794873,6,-44.43359375,-31.73828125,-474.12109375,55.6640625,0.0
1733383217.3950686,6,-54.19921875,-28.80859375,-487.79296875,41.015625,0.0
1733383217.4112055,6,-120.1171875,-30.76171875,-390.13671875,59.08203125,0.0
1733383217.4264073,6,-104.00390625,-37.59765625,-462.40234375,61.03515625,0.0
1733383217.441481,6,-50.78125,-58.10546875,-565.4296875,62.01171875,0.0
1733383217.4572213,6,-15.625,-60.05859375,-655.2734375,83.0078125,0.0
1733383217.473665,6,-122.0703125,-35.15625,-446.2890625,23.4375,0.0
1733383217.489117,6,-131.34765625,-36.62109375,-408.203125,13.671875,0.0
1733383217.5044143,6,-118.1640625,-49.31640625,-444.3359375,19.53125,0.0
1733383217.5203948,6,-125.48828125,-64.94140625,-433.59375,11.23046875,0.0
1733383217.5355937,6,-129.8828125,-56.640625,-396.484375,47.36328125,0.0
1733383217.5515528,6,-95.21484375,-20.5078125,-443.359375,104.00390625,0.0
1733383217.566485,6,-75.1953125,-24.4140625,-511.23046875,72.265625,0.0
1733383217.5818536,6,-163.57421875,-49.8046875,-454.1015625,0.9765625,0.0
1733383217.5984337,6,-126.953125,-73.73046875,-491.2109375,7.32421875,0.0
1733383217.6132178,6,-92.28515625,-81.0546875,-567.3828125,42.48046875,0.0
1733383217.628103,6,-106.93359375,-66.40625,-615.72265625,39.55078125,0.0
1733383217.64404,6,-126.953125,-44.921875,-576.171875,-24.90234375,0.0
1733383217.6591341,6,-116.2109375,-37.59765625,-491.69921875,-41.9921875,0.0
1733383217.6745174,6,-48.828125,-32.2265625,-547.8515625,17.08984375,0.0
1733383217.6904743,6,-13.18359375,-31.25,-617.67578125,-2.44140625,0.0
1733383217.705151,6,-95.703125,-44.43359375,-499.51171875,-90.33203125,0.0
1733383217.7204297,6,-130.859375,-57.6171875,-477.05078125,-142.08984375,0.0
1733383217.7365286,6,-43.45703125,-55.6640625,-550.29296875,-74.21875,0.0
1733383217.7519612,6,30.76171875,-32.71484375,-595.703125,-12.20703125,0.0
1733383217.7674284,6,-62.98828125,-24.4140625,-500.0,-29.296875,0.0
1733383217.7834022,6,-135.7421875,-41.015625,-524.90234375,-38.57421875,0.0
1733383217.7986174,6,-47.36328125,-60.05859375,-693.84765625,25.390625,0.0
1733383217.8145804,6,-36.62109375,-67.87109375,-696.77734375,13.671875,0.0
1733383217.829692,6,-138.18359375,-63.4765625,-476.07421875,-115.234375,0.0
1733383217.8454943,6,-145.5078125,-60.546875,-495.1171875,-131.34765625,0.0
1733383217.8613744,6,-79.58984375,-71.77734375,-569.82421875,-60.05859375,0.0
1733383217.8768775,6,-54.6875,-74.21875,-581.0546875,-29.296875,0.0
1733383217.8924432,6,-64.94140625,-80.078125,-570.3125,-87.890625,0.0
1733383217.9076908,6,-39.0625,-83.984375,-552.734375,-110.83984375,0.0
1733383217.9235563,6,-27.83203125,-74.70703125,-640.625,-39.0625,0.0
1733383217.939331,6,-83.49609375,-85.44921875,-563.96484375,-47.36328125,0.0
1733383217.9542544,6,-45.41015625,-63.96484375,-536.62109375,-92.7734375,0.0
1733383217.9697046,6,-41.015625,-41.9921875,-598.6328125,-91.30859375,0.0
1733383217.9848514,6,-84.9609375,-51.26953125,-647.4609375,-42.96875,0.0
1733383217.999674,6,-64.453125,-48.828125,-610.83984375,-49.31640625,0.0
1733383218.0156002,6,-40.0390625,-49.31640625,-592.7734375,-84.47265625,0.0
1733383218.0305853,6,-56.640625,-49.31640625,-618.65234375,-97.16796875,0.0
1733383218.0457544,6,-79.58984375,-49.31640625,-660.64453125,-50.78125,0.0
1733383218.061284,6,-91.796875,-46.875,-577.1484375,-63.4765625,0.0
1733383218.0764174,6,-70.3125,-33.69140625,-525.87890625,-116.2109375,0.0
1733383218.0920105,6,-21.97265625,-44.921875,-661.1328125,-68.84765625,0.0
1733383218.107218,6,-31.73828125,-59.08203125,-737.79296875,0.48828125,0.0
1733383218.1224096,6,-89.35546875,-62.98828125,-586.42578125,-42.48046875,0.0
1733383218.1374347,6,-112.3046875,-82.03125,-582.03125,-65.4296875,0.0
1733383218.1528518,6,-91.796875,-76.66015625,-689.453125,-37.109375,0.0
1733383218.1686766,6,-100.5859375,-57.12890625,-713.37890625,-66.89453125,0.0
1733383218.1843815,6,-109.375,-33.203125,-634.765625,-68.84765625,0.0
1733383218.2003977,6,-102.5390625,-18.5546875,-545.8984375,-47.8515625,0.0
1733383218.216361,6,-51.7578125,-38.57421875,-735.83984375,-1.953125,0.0
1733383218.2324045,6,-47.36328125,-52.24609375,-762.6953125,-11.23046875,0.0
1733383218.247909,6,-114.74609375,-46.875,-536.62109375,-112.3046875,0.0
1733383218.2639074,6,-77.63671875,-52.24609375,-578.61328125,-62.01171875,0.0
1733383218.2790751,6,-33.69140625,-49.31640625,-676.26953125,0.9765625,0.0
1733383218.2942455,6,-73.2421875,-42.48046875,-640.13671875,-50.78125,0.0
1733383218.3095787,6,-77.63671875,-58.10546875,-617.67578125,-97.65625,0.0
1733383218.324813,6,-51.26953125,-56.15234375,-623.53515625,-59.5703125,0.0
1733383218.3405914,6,-80.56640625,-60.546875,-651.3671875,-30.2734375,0.0
1733383218.3557482,6,-93.26171875,-49.31640625,-686.03515625,-1.46484375,0.0
1733383218.371743,6,-87.40234375,-36.62109375,-659.66796875,2.9296875,0.0
1733383218.3875856,6,-85.44921875,-41.50390625,-671.38671875,-20.5078125,0.0
1733383218.403576,6,-34.66796875,-40.52734375,-694.82421875,43.9453125,0.0
1733383218.419544,6,-74.21875,-44.921875,-596.19140625,2.9296875,0.0
1733383218.4351542,6,-111.328125,-28.80859375,-526.3671875,-56.15234375,0.0
1733383218.4512696,6,-49.31640625,-15.13671875,-626.953125,30.76171875,0.0
1733383218.4672415,6,-44.43359375,-28.3203125,-652.34375,77.1484375,0.0
1733383218.4829533,6,-93.75,-42.96875,-538.0859375,61.5234375,0.0
1733383218.4984508,6,-120.60546875,-32.71484375,-516.6015625,71.77734375,0.0
1733383218.5136476,6,-90.33203125,-33.203125,-610.83984375,103.515625,0.0
1733383218.5286183,6,-36.1328125,-43.9453125,-620.1171875,88.8671875,0.0
1733383218.544598,6,-42.96875,-39.55078125,-621.09375,83.0078125,0.0
1733383218.5599012,6,-77.63671875,-36.62109375,-552.24609375,58.10546875,0.0
1733383218.5751889,6,-63.96484375,-48.828125,-620.60546875,104.4921875,0.0
1733383218.5904093,6,-55.6640625,-52.24609375,-669.43359375,148.92578125,0.0
1733383218.6054745,6,-88.8671875,-43.45703125,-520.5078125,93.26171875,0.0
1733383218.6204767,6,-73.73046875,-40.52734375,-562.01171875,110.3515625,0.0
1733383218.6362143,6,-80.56640625,-42.96875,-532.71484375,93.26171875,0.0
1733383218.6514373,6,0.0,-35.64453125,-492.67578125,101.5625,0.0
1733383218.6665862,6,0.0,-12.6953125,-447.265625,132.8125,0.0
1733383218.68203,6,0.0,-20.5078125,-522.4609375,126.953125,0.0
1733383218.6972504,6,0.0,-34.66796875,-548.33984375,98.6328125,0.0
1733383218.7134967,6,0.0,-25.87890625,-483.88671875,92.28515625,0.0
1733383218.7283416,6,0.0,-22.94921875,-529.78515625,140.13671875,0.0
1733383218.7439954,6,0.0,-38.57421875,-529.296875,126.953125,0.0
1733383218.7599435,6,0.0,-57.6171875,-590.33203125,128.41796875,0.0
1733383218.7748966,6,0.0,-45.8984375,-522.4609375,111.81640625,0.0
1733383218.7899952,6,0.0,-20.01953125,-372.0703125,94.23828125,0.0
1733383218.8051515,6,0.0,-16.11328125,-497.55859375,158.69140625,0.0
1733383218.8203554,6,0.0,-19.04296875,-526.3671875,162.59765625,0.0
1733383218.8363013,6,-78.61328125,-30.2734375,-471.6796875,165.0390625,0.0
1733383218.851211,6,-93.75,-34.66796875,-441.40625,167.48046875,0.0
1733383218.8665354,6,-72.265625,-23.92578125,-500.48828125,183.10546875,0.0
1733383218.8819916,6,-27.34375,-32.71484375,-534.1796875,186.03515625,0.0
1733383218.8970618,6,-20.01953125,-29.296875,-437.01171875,145.99609375,0.0
1733383218.9129395,6,6.34765625,-24.90234375,-479.98046875,193.84765625,0.0
1733383218.9278889,6,35.64453125,-33.203125,-587.890625,287.109375,0.0
1733383218.9430633,6,0.0,-32.71484375,-594.23828125,212.40234375,0.0
1733383218.9582963,6,-76.66015625,-16.6015625,-348.6328125,95.703125,0.0
1733383218.9730244,6,38.0859375,-11.71875,-382.8125,166.015625,0.0
1733383218.9881747,6,111.328125,-10.25390625,-420.8984375,180.17578125,0.0
1733383219.0029354,6,-43.9453125,-3.90625,-390.13671875,134.765625,0.0
1733383219.018281,6,-62.98828125,-0.48828125,-362.79296875,139.16015625,0.0
1733383219.0333068,6,29.78515625,-3.41796875,-383.30078125,153.80859375,0.0
1733383219.0480287,6,19.53125,-13.18359375,-398.92578125,183.59375,0.0
1733383219.0640674,6,43.9453125,-32.71484375,-365.72265625,208.984375,0.0
1733383219.079882,6,56.640625,-36.62109375,-384.27734375,205.56640625,0.0
1733383219.0956914,6,64.453125,-23.92578125,-396.97265625,219.7265625,0.0
1733383219.1110966,6,153.3203125,-31.25,-524.4140625,265.625,0.0
1733383219.126356,6,84.9609375,-34.66796875,-456.54296875,222.16796875,0.0
1733383219.1417758,6,-2.9296875,-34.1796875,-259.27734375,110.83984375,0.0
1733383219.1569142,6,25.390625,-27.83203125,-348.14453125,130.37109375,0.0
1733383219.172711,6,32.71484375,-24.4140625,-361.81640625,160.64453125,0.0
1733383219.1884646,6,31.25,-39.55078125,-177.24609375,146.97265625,0.0
1733383219.2039492,6,44.921875,-32.71484375,-195.3125,160.64453125,0.0
1733383219.2192683,6,57.6171875,-14.16015625,-361.81640625,174.31640625,0.0
1733383219.2344704,6,47.36328125,-6.34765625,-406.25,171.38671875,0.0
1733383219.2500405,6,23.4375,-16.11328125,-260.25390625,133.7890625,0.0
1733383219.2657094,6,39.55078125,-18.5546875,-225.5859375,88.8671875,0.0
1733383219.2807677,6,44.43359375,-17.08984375,-439.94140625,133.7890625,0.0
1733383219.2968264,6,40.52734375,-32.2265625,-568.359375,152.34375,0.0
1733383219.312802,6,-30.76171875,-29.296875,-338.37890625,82.51953125,0.0
1733383219.328588,6,-80.56640625,-37.59765625,-153.3203125,78.125,0.0
1733383219.3436117,6,-20.01953125,-48.33984375,-330.078125,142.578125,0.0
1733383219.3594825,6,-39.0625,-68.84765625,-448.73046875,139.6484375,0.0
1733383219.3755193,6,-98.14453125,-59.5703125,-284.66796875,66.40625,0.0
1733383219.3906102,6,-80.078125,-21.484375,-258.30078125,72.75390625,0.0
1733383219.4055603,6,-100.5859375,-24.4140625,-326.171875,65.4296875,0.0
1733383219.4214807,6,-133.30078125,-32.71484375,-333.0078125,42.48046875,0.0
1733383219.436515,6,-110.3515625,-22.4609375,-322.265625,65.4296875,0.0
1733383219.4518538,6,-82.03125,-16.11328125,-347.16796875,89.35546875,0.0
1733383219.4674122,6,-41.9921875,-21.97265625,-426.7578125,166.015625,0.0
1733383219.482757,6,-64.453125,-31.25,-430.17578125,208.984375,0.0
1733383219.497398,6,-142.08984375,-33.69140625,-387.20703125,104.4921875,0.0
1733383219.513369,6,-146.97265625,-28.80859375,-384.27734375,81.0546875,0.0
1733383219.5284555,6,-96.19140625,-32.71484375,-467.28515625,136.71875,0.0
1733383219.543253,6,-129.39453125,-36.62109375,-386.71875,96.19140625,0.0
1733383219.5593543,6,-147.94921875,-30.2734375,-345.703125,110.3515625,0.0
1733383219.5749567,6,-33.69140625,-28.3203125,-414.0625,162.59765625,0.0
1733383219.5903308,6,19.53125,-19.04296875,-432.6171875,158.203125,0.0
1733383219.6052227,6,-111.81640625,-23.92578125,-354.98046875,137.20703125,0.0
1733383219.6207578,6,-165.52734375,-17.578125,-346.19140625,120.60546875,0.0
1733383219.6357255,6,-116.69921875,-3.90625,-440.4296875,124.0234375,0.0
1733383219.6508818,6,-75.68359375,-15.625,-513.18359375,164.0625,0.0
1733383219.666121,6,-98.14453125,-29.296875,-458.984375,137.6953125,0.0
1733383219.6811028,6,-120.1171875,-27.34375,-354.4921875,85.44921875,0.0
1733383219.6969712,6,-44.921875,-24.4140625,-547.8515625,166.50390625,0.0
1733383219.7122707,6,-56.640625,-47.8515625,-613.28125,188.4765625,0.0
1733383219.727147,6,-172.8515625,-40.52734375,-372.0703125,63.4765625,0.0
1733383219.7430954,6,-134.765625,-18.5546875,-428.7109375,64.453125,0.0
1733383219.7582252,6,-117.67578125,-20.5078125,0.0,85.9375,0.0
1733383219.7737002,6,-158.69140625,-38.57421875,0.0,79.1015625,0.0
1733383219.7892385,6,-133.30078125,-44.43359375,0.0,100.5859375,0.0
1733383219.804709,6,-114.2578125,-22.94921875,0.0,125.48828125,0.0
1733383219.820141,6,-92.7734375,-18.06640625,0.0,134.27734375,0.0
1733383219.8350132,6,-65.4296875,-32.2265625,0.0,135.7421875,0.0
1733383219.8503885,6,-44.43359375,-35.64453125,0.0,83.0078125,0.0
1733383219.8664405,6,-49.31640625,-27.34375,0.0,51.7578125,0.0
1733383219.8819034,6,-62.01171875,-48.828125,0.0,102.05078125,0.0
1733383219.8971095,6,-95.703125,-57.6171875,0.0,74.21875,0.0
1733383219.9126234,6,-118.65234375,-30.2734375,0.0,64.94140625,0.0
1733383219.9277673,6,-76.171875,-34.66796875,0.0,105.95703125,0.0
1733383219.9433696,6,-15.13671875,-44.921875,-482.91015625,83.984375,0.0
1733383219.9594367,6,-13.18359375,-24.4140625,-388.671875,45.41015625,0.0
1733383219.9753861,6,-25.390625,-14.6484375,-411.1328125,68.84765625,0.0
1733383219.9911025,6,-34.1796875,-30.76171875,-522.4609375,109.375,0.0
1733383220.0063574,6,-81.54296875,-30.2734375,-513.671875,74.70703125,0.0
1733383220.021111,6,-73.73046875,-51.26953125,-511.23046875,77.1484375,0.0
1733383220.0371985,6,-74.70703125,-59.5703125,-436.03515625,56.15234375,0.0
1733383220.0524356,6,-22.4609375,-43.45703125,-529.78515625,90.33203125,0.0
1733383220.0684688,6,-4.39453125,-51.7578125,-617.67578125,92.28515625,0.0
1733383220.0844278,6,-58.10546875,-54.6875,-417.96875,-7.32421875,0.0
1733383220.0998514,6,-99.12109375,-55.17578125,-457.03125,-11.23046875,0.0
1733383220.1158068,6,-126.46484375,-50.29296875,-529.296875,33.203125,0.0
1733383220.1317909,6,-108.3984375,-39.55078125,-511.71875,15.13671875,0.0
1733383220.1471796,6,-118.1640625,-37.109375,-455.56640625,-60.05859375,0.0
1733383220.1630938,6,-68.84765625,-38.0859375,-516.6015625,-28.3203125,0.0
1733383220.1781793,6,-38.57421875,-33.203125,-510.25390625,-23.92578125,0.0
1733383220.1937866,6,-53.7109375,-34.1796875,-517.578125,-41.015625,0.0
1733383220.20905,6,-48.33984375,-55.17578125,-596.19140625,-44.921875,0.0
1733383220.2240496,6,-52.734375,-76.171875,-591.796875,-75.68359375,0.0
1733383220.2405384,6,83.0078125,-70.80078125,-635.7421875,20.5078125,0.0
1733383220.25599,6,46.38671875,-63.4765625,-581.0546875,-18.06640625,0.0
1733383220.271605,6,-111.81640625,-38.0859375,-468.26171875,-127.44140625,0.0
1733383220.2864907,6,-53.22265625,-20.5078125,-562.01171875,-77.63671875,0.0
1733383220.302027,6,13.18359375,-31.25,-592.28515625,-32.71484375,0.0
1733383220.317746,6,0.0,-41.9921875,-496.09375,-14.6484375,0.0
1733383220.3329966,6,0.0,-47.36328125,-464.84375,-39.0625,0.0
1733383220.3481557,6,0.0,-44.921875,-604.4921875,-31.73828125,0.0
1733383220.3633757,6,0.0,-55.6640625,-632.8125,-22.4609375,0.0
1733383220.379186,6,0.0,-60.546875,-478.02734375,-50.29296875,0.0
1733383220.3949342,6,0.0,-62.01171875,-557.12890625,-30.2734375,0.0
1733383220.4102967,6,0.0,-61.5234375,-668.9453125,25.87890625,0.0
1733383220.425798,6,0.0,-55.17578125,-693.84765625,72.75390625,0.0
1733383220.441503,6,0.0,-62.5,-507.8125,6.8359375,0.0
1733383220.4574401,6,0.0,-34.66796875,-452.1484375,-15.625,0.0
1733383220.4722211,6,0.0,-15.13671875,-507.8125,24.90234375,0.0
1733383220.4873576,6,0.0,-30.76171875,-485.3515625,28.80859375,0.0
1733383220.5025127,6,-26.85546875,-25.87890625,-418.45703125,21.484375,0.0
1733383220.5184617,6,-32.71484375,-16.11328125,-452.1484375,52.24609375,0.0
1733383220.5334947,6,-5.859375,-23.92578125,-491.69921875,33.203125,0.0
1733383220.548443,6,-34.66796875,-35.15625,-436.5234375,-19.04296875,0.0
1733383220.56332,6,-10.7421875,-33.203125,-471.6796875,11.23046875,0.0
1733383220.57915,6,18.06640625,-34.1796875,-512.20703125,48.828125,0.0
1733383220.5946698,6,32.2265625,-44.921875,-610.83984375,108.88671875,0.0
1733383220.6097133,6,46.38671875,-53.7109375,-565.91796875,65.91796875,0.0
1733383220.6257362,6,-7.8125,-45.8984375,-388.18359375,3.41796875,0.0
1733383220.6406581,6,42.96875,-57.12890625,-415.0390625,58.59375,0.0
1733383220.6561882,6,68.84765625,-71.2890625,-518.5546875,63.4765625,0.0
1733383220.6723325,6,2.9296875,-62.01171875,-487.79296875,41.015625,0.0
1733383220.6869376,6,-81.54296875,-34.66796875,-358.3984375,20.01953125,0.0
1733383220.7026196,6,13.18359375,-17.578125,-449.70703125,36.62109375,0.0
1733383220.71828,6,-1.953125,-42.48046875,-536.1328125,76.171875,0.0
1733383220.7334952,6,-97.16796875,-56.640625,-395.01953125,8.7890625,0.0
1733383220.749148,6,-98.6328125,-50.29296875,-413.57421875,-8.7890625,0.0
1733383220.7643318,6,-44.43359375,-56.640625,-597.65625,102.05078125,0.0
1733383220.7799845,6,-55.6640625,-66.89453125,-580.078125,98.6328125,0.0
1733383220.7953358,6,-123.53515625,-70.80078125,-394.53125,8.7890625,0.0
1733383220.8107693,6,-126.46484375,-45.41015625,-385.25390625,-8.7890625,0.0
1733383220.8260064,6,-41.015625,-27.34375,-558.10546875,63.4765625,0.0
1733383220.8410866,6,-4.8828125,-42.96875,-596.6796875,84.47265625,0.0
1733383220.8571117,6,-106.93359375,-37.109375,-370.1171875,-30.2734375,0.0
1733383220.8721206,6,-83.49609375,-31.25,-412.109375,-14.16015625,0.0
1733383220.8874166,6,-1.46484375,-33.203125,-524.90234375,62.5,0.0
1733383220.9025564,6,6.8359375,-30.76171875,-445.80078125,62.01171875,0.0
1733383220.9181564,6,-31.73828125,-34.66796875,-378.41796875,18.5546875,0.0
1733383220.9336014,6,5.859375,-41.015625,-406.73828125,45.41015625,0.0
1733383220.949143,6,61.5234375,-62.98828125,-459.47265625,91.30859375,0.0
1733383220.9647396,6,40.0390625,-65.91796875,-457.03125,83.984375,0.0
1733383220.980163,6,-17.578125,-43.9453125,-432.6171875,57.6171875,0.0
1733383220.9956183,6,0.9765625,-29.78515625,-424.8046875,42.96875,0.0
1733383221.0115461,6,91.796875,-43.9453125,-506.8359375,91.30859375,0.0
1733383221.0274932,6,83.49609375,-45.41015625,-403.3203125,88.37890625,0.0
1733383221.0434537,6,49.31640625,-19.53125,-312.98828125,51.26953125,0.0
1733383221.0593886,6,74.70703125,-37.109375,-415.0390625,74.21875,0.0
1733383221.0747027,6,77.1484375,-44.921875,-479.00390625,71.2890625,0.0
1733383221.090247,6,49.8046875,-36.1328125,-401.85546875,38.0859375,0.0
1733383221.105542,6,100.09765625,-28.80859375,-358.88671875,50.29296875,0.0
1733383221.1214886,6,109.375,-16.6015625,-439.453125,68.359375,0.0
1733383221.1373782,6,29.296875,-26.85546875,-513.18359375,70.3125,0.0
1733383221.1533048,6,27.34375,-45.41015625,-456.0546875,39.55078125,0.0
1733383221.1691935,6,85.44921875,-43.45703125,-337.890625,14.6484375,0.0
1733383221.1848862,6,105.46875,-37.59765625,-524.90234375,114.74609375,0.0
1733383221.1998396,6,36.1328125,-32.2265625,-620.60546875,112.79296875,0.0
1733383221.2152052,6,-25.390625,-25.87890625,-409.1796875,-18.5546875,0.0
1733383221.2303898,6,24.4140625,-36.1328125,-461.9140625,26.3671875,0.0
1733383221.2465334,6,41.015625,-39.55078125,-459.47265625,32.2265625,0.0
1733383221.261738,6,-7.32421875,-34.1796875,-392.578125,17.08984375,0.0
1733383221.277074,6,-23.4375,-37.109375,-430.6640625,39.55078125,0.0
1733383221.291776,6,-0.48828125,-42.96875,-437.98828125,50.29296875,0.0
1733383221.3078613,6,66.89453125,-51.7578125,-471.6796875,56.640625,0.0
1733383221.3230517,6,55.17578125,-59.08203125,-535.15625,40.0390625,0.0
1733383221.337962,6,-62.01171875,-59.5703125,-506.8359375,22.94921875,0.0
1733383221.3540092,6,-30.2734375,-50.29296875,-514.6484375,34.66796875,0.0
1733383221.369355,6,22.4609375,-46.875,-527.83203125,92.7734375,0.0
1733383221.3843427,6,-14.16015625,-47.8515625,-434.5703125,61.5234375,0.0
1733383221.4002445,6,-39.55078125,-53.22265625,-385.7421875,-7.8125,0.0
1733383221.4154375,6,27.83203125,-45.41015625,-486.81640625,42.48046875,0.0
1733383221.4302413,6,0.0,-48.828125,-535.64453125,103.02734375,0.0
1733383221.4450448,6,0.0,-41.50390625,-443.359375,32.71484375,0.0
1733383221.4600575,6,0.0,-29.296875,-411.62109375,-2.44140625,0.0
1733383221.4756055,6,0.0,-43.9453125,-517.08984375,36.62109375,0.0
1733383221.4912996,7,0.0,-45.8984375,-525.390625,56.640625,0.0
1733383221.506925,7,0.0,-50.29296875,-450.1953125,71.2890625,0.0
1733383221.5220263,7,0.0,-60.05859375,-456.54296875,68.84765625,0.0
1733383221.5372372,7,0.0,-60.546875,-589.84375,115.234375,0.0
1733383221.5521095,7,0.0,-53.22265625,-605.46875,122.55859375,0.0
1733383221.5680811,7,0.0,-30.76171875,-399.4140625,46.38671875,0.0
1733383221.5840979,7,0.0,-39.0625,-443.84765625,48.33984375,0.0
1733383221.6000457,7,0.0,-58.59375,-482.421875,50.29296875,0.0
1733383221.615993,7,-6.34765625,-51.26953125,-440.91796875,66.89453125,0.0
1733383221.6316383,7,-11.23046875,-24.4140625,-357.421875,82.03125,0.0
1733383221.646792,7,19.04296875,-23.4375,-414.0625,73.2421875,0.0
1733383221.6626115,7,26.3671875,-53.22265625,-459.47265625,54.6875,0.0
1733383221.6777875,7,-6.8359375,-51.7578125,-414.0625,47.36328125,0.0
1733383221.693199,7,66.89453125,-27.83203125,-457.03125,93.26171875,0.0
1733383221.7088263,7,129.8828125,-22.4609375,-451.66015625,106.4453125,0.0
1733383221.7246747,7,83.0078125,-37.59765625,-514.16015625,147.94921875,0.0
1733383221.739798,7,5.859375,-53.22265625,-450.68359375,76.171875,0.0
1733383221.7556846,7,-8.30078125,-44.921875,-299.8046875,9.765625,0.0
1733383221.7717404,7,31.73828125,-39.0625,-401.3671875,73.2421875,0.0
1733383221.7876263,7,37.109375,-42.48046875,-392.08984375,95.21484375,0.0
1733383221.8035262,7,15.13671875,-44.921875,-330.56640625,62.01171875,0.0
1733383221.818693,7,56.640625,-47.8515625,-361.81640625,65.91796875,0.0
1733383221.8343413,7,106.93359375,-41.9921875,-434.08203125,119.62890625,0.0
1733383221.8504512,7,11.71875,-29.296875,-378.90625,68.84765625,0.0
1733383221.8661904,7,-4.8828125,-24.4140625,-296.38671875,61.5234375,0.0
1733383221.8814158,7,86.9140625,-26.3671875,-367.1875,120.1171875,0.0
1733383221.8966987,7,132.8125,-49.31640625,-468.26171875,183.10546875,0.0
1733383221.9114547,7,52.24609375,-62.5,-502.9296875,186.03515625,0.0
1733383221.9266393,7,-22.4609375,-40.52734375,-214.35546875,82.51953125,0.0
1733383221.942438,7,5.859375,-29.296875,-188.4765625,118.1640625,0.0
1733383221.9573889,7,60.05859375,-28.3203125,-274.4140625,135.7421875,0.0
1733383221.9729807,7,50.78125,-26.85546875,-312.5,94.23828125,0.0
1733383221.988971,7,3.90625,-34.1796875,-245.1171875,67.3828125,0.0
1733383222.0050218,7,-0.48828125,-33.69140625,-298.33984375,76.171875,0.0
1733383222.0201833,7,-0.9765625,-34.1796875,-372.55859375,87.890625,0.0
1733383222.0351093,7,40.0390625,-36.1328125,-358.88671875,96.19140625,0.0
1733383222.0502949,7,30.76171875,-34.1796875,-380.37109375,72.265625,0.0
1733383222.065192,7,-18.06640625,-36.1328125,-385.25390625,29.78515625,0.0
1733383222.0806682,7,74.70703125,-47.36328125,-554.6875,103.02734375,0.0
1733383222.0958524,7,69.3359375,-52.734375,-501.953125,92.28515625,0.0
1733383222.1115367,7,-39.55078125,-34.66796875,-296.38671875,-35.15625,0.0
1733383222.1269653,7,-20.99609375,-36.62109375,-395.01953125,-26.85546875,0.0
1733383222.1428251,7,-0.48828125,-56.640625,-448.2421875,5.859375,0.0
1733383222.1581626,7,-31.73828125,-54.6875,-386.23046875,-26.85546875,0.0
1733383222.173439,7,-57.12890625,-54.19921875,-409.66796875,-41.9921875,0.0
1733383222.1885087,7,-67.3828125,-57.6171875,-518.5546875,-38.57421875,0.0
1733383222.2044086,7,-38.57421875,-54.19921875,-576.171875,-27.34375,0.0
1733383222.2194436,7,-46.38671875,-57.6171875,-428.7109375,-62.98828125,0.0
1733383222.2347713,7,-89.35546875,-54.19921875,-480.95703125,-69.3359375,0.0
1733383222.2508526,7,-60.546875,-51.26953125,-666.9921875,-7.32421875,0.0
1733383222.266383,7,-55.17578125,-58.59375,-709.47265625,-13.671875,0.0
1733383222.281762,7,-101.07421875,-77.1484375,-521.484375,-101.5625,0.0
1733383222.2970316,7,-71.2890625,-77.1484375,-483.88671875,-88.8671875,0.0
1733383222.3124545,7,-52.24609375,-49.8046875,-560.546875,-36.62109375,0.0
1733383222.3287063,7,-103.02734375,-47.36328125,-561.5234375,-70.80078125,0.0
1733383222.3446577,7,-75.68359375,-41.015625,-487.3046875,-98.14453125,0.0
1733383222.3603234,7,-19.04296875,-37.59765625,-497.0703125,-69.82421875,0.0
1733383222.3754723,7,-41.50390625,-61.03515625,-562.5,-39.55078125,0.0
1733383222.3914876,7,-56.640625,-66.40625,-512.20703125,-23.92578125,0.0
1733383222.4063585,7,-52.734375,-71.2890625,-492.1875,-30.2734375,0.0
1733383222.4212205,7,-17.578125,-57.12890625,-528.3203125,-26.85546875,0.0
1733383222.4364603,7,-2.9296875,-30.2734375,-588.8671875,22.94921875,0.0
1733383222.4521728,7,-32.2265625,-44.921875,-566.40625,16.11328125,0.0
1733383222.468464,7,-48.33984375,-51.7578125,-512.20703125,-8.7890625,0.0
1733383222.484288,7,6.8359375,-42.96875,-475.09765625,34.1796875,0.0
1733383222.5003703,7,65.91796875,-62.5,-583.984375,96.6796875,0.0
1733383222.5154965,7,-12.6953125,-64.453125,-489.2578125,38.57421875,0.0
1733383222.530971,7,-64.453125,-53.22265625,-401.85546875,8.7890625,0.0
1733383222.5465794,7,-10.25390625,-55.17578125,-485.3515625,85.44921875,0.0
1733383222.5621262,7,36.62109375,-58.59375,-529.296875,97.65625,0.0
1733383222.5774066,7,5.859375,-59.08203125,-443.84765625,24.4140625,0.0
1733383222.5924659,7,-16.6015625,-41.9921875,-389.6484375,18.5546875,0.0
1733383222.6079164,7,71.77734375,-38.57421875,-493.65234375,76.171875,0.0
1733383222.623477,7,134.27734375,-50.78125,-571.2890625,120.60546875,0.0
1733383222.6390724,7,88.8671875,-47.36328125,-462.890625,86.9140625,0.0
1733383222.654367,7,23.92578125,-41.50390625,-383.30078125,22.4609375,0.0
1733383222.669557,7,84.47265625,-71.2890625,-491.69921875,65.91796875,0.0
1733383222.685261,7,110.3515625,-66.89453125,-480.95703125,81.54296875,0.0
1733383222.7008421,7,57.6171875,-32.2265625,-380.859375,35.64453125,0.0
1733383222.7164693,7,62.01171875,-24.90234375,-380.37109375,60.546875,0.0
1733383222.7318184,7,135.7421875,-24.4140625,-560.05859375,133.7890625,0.0
1733383222.7475672,7,190.91796875,-48.828125,-551.26953125,108.88671875,0.0
1733383222.762886,7,157.2265625,-51.7578125,-313.4765625,25.390625,0.0
1733383222.778311,7,134.27734375,-38.0859375,-371.58203125,74.21875,0.0
1733383222.7934418,7,112.3046875,-34.66796875,-466.30859375,94.7265625,0.0
1733383222.80839,7,154.296875,-23.92578125,-455.56640625,82.03125,0.0
1733383222.824345,7,196.77734375,-26.85546875,-426.26953125,97.65625,0.0
1733383222.8401275,7,238.76953125,-35.64453125,-421.38671875,92.28515625,0.0
1733383222.8554032,7,258.30078125,-75.1953125,-485.3515625,129.8828125,0.0
1733383222.870998,7,213.8671875,-71.2890625,-414.0625,99.12109375,0.0
1733383222.886783,7,226.5625,-5.859375,-258.7890625,74.21875,0.0
1733383222.902266,7,240.234375,1.953125,-373.046875,124.0234375,0.0
1733383222.9170535,7,189.453125,-16.6015625,-354.98046875,115.234375,0.0
1733383222.932234,7,196.77734375,-13.671875,-216.796875,126.953125,0.0
1733383222.9476233,7,252.9296875,-18.06640625,-192.87109375,116.69921875,0.0
1733383222.9630833,7,314.94140625,-23.92578125,-360.83984375,129.8828125,0.0
1733383222.9781885,7,311.5234375,-26.85546875,-341.30859375,121.09375,0.0
1733383222.9942284,7,278.80859375,-31.25,-307.6171875,115.72265625,0.0
1733383223.0100288,7,274.4140625,-30.76171875,-195.80078125,139.16015625,0.0
1733383223.025167,7,321.77734375,-34.66796875,-240.234375,194.3359375,0.0
1733383223.0406804,7,309.08203125,-47.8515625,-450.1953125,171.875,0.0
1733383223.055785,7,217.7734375,-62.98828125,-133.30078125,60.05859375,0.0
1733383223.0710394,7,260.7421875,-44.43359375,50.29296875,107.91015625,0.0
1733383223.0865164,7,341.796875,-10.7421875,-77.1484375,161.1328125,0.0
1733383223.102077,7,307.12890625,-26.3671875,-84.9609375,94.7265625,0.0
1733383223.1169028,7,250.9765625,-32.2265625,101.5625,78.61328125,0.0
1733383223.1321707,7,272.94921875,-23.92578125,37.109375,109.375,0.0
1733383223.1474485,7,289.55078125,-27.34375,-34.1796875,115.234375,0.0
1733383223.163285,7,265.625,-37.109375,19.53125,106.93359375,0.0
1733383223.1783547,7,221.6796875,-53.7109375,-51.26953125,93.26171875,0.0
1733383223.1934524,7,224.12109375,-56.640625,-218.26171875,84.47265625,0.0
1733383223.209538,7,299.8046875,-63.96484375,-353.515625,145.01953125,0.0
1733383223.2248526,7,301.7578125,-67.87109375,-298.828125,138.671875,0.0
1733383223.2397957,7,268.06640625,-45.8984375,55.17578125,34.1796875,0.0
1733383223.2555075,7,282.2265625,-38.0859375,45.8984375,71.77734375,0.0
1733383223.2705753,7,302.24609375,-52.734375,-37.59765625,127.9296875,0.0
1733383223.286171,7,292.96875,-52.734375,74.21875,100.09765625,0.0
1733383223.3021116,7,249.51171875,-28.3203125,131.8359375,102.5390625,0.0
1733383223.3173614,7,282.2265625,-23.92578125,-2.9296875,113.76953125,0.0
1733383223.3323166,7,293.9453125,-39.0625,-66.89453125,82.51953125,0.0
1733383223.3476086,7,285.15625,-31.73828125,62.98828125,66.89453125,0.0
1733383223.3626447,7,292.48046875,-39.55078125,33.203125,78.61328125,0.0
1733383223.3786783,7,385.25390625,-61.03515625,-147.94921875,134.27734375,0.0
1733383223.3938866,7,353.515625,-59.08203125,-304.19921875,137.20703125,0.0
1733383223.4090843,7,176.7578125,-54.19921875,-13.671875,63.96484375,0.0
1733383223.424426,7,166.015625,-39.0625,105.46875,49.31640625,0.0
1733383223.4394152,7,214.35546875,-38.57421875,8.30078125,9.765625,0.0
1733383223.454436,7,232.421875,-57.12890625,26.85546875,0.9765625,0.0
1733383223.4697378,7,232.91015625,-41.50390625,153.3203125,-3.90625,0.0
1733383223.4853573,7,292.96875,-25.390625,119.62890625,12.20703125,0.0
1733383223.5012193,7,283.203125,-33.69140625,56.15234375,53.22265625,0.0
1733383223.5164316,7,210.44921875,-42.48046875,89.35546875,41.9921875,0.0
1733383223.531443,7,222.65625,-38.0859375,116.69921875,13.671875,0.0
1733383223.5474555,7,254.8828125,-43.9453125,61.5234375,50.78125,0.0
1733383223.562941,7,278.3203125,-59.5703125,-299.8046875,155.2734375,0.0
1733383223.5791142,7,239.2578125,-59.08203125,-288.57421875,48.828125,0.0
1733383223.5951672,7,187.5,-49.8046875,118.1640625,-71.77734375,0.0
1733383223.6103392,7,259.765625,-42.48046875,75.1953125,26.85546875,0.0
1733383223.6252937,7,259.765625,-49.8046875,18.5546875,47.36328125,0.0
1733383223.6410372,7,223.14453125,-65.91796875,41.015625,15.13671875,0.0
1733383223.656243,7,0.0,-63.96484375,69.3359375,50.78125,0.0
1733383223.6714327,7,0.0,-54.6875,5.859375,77.1484375,0.0
1733383223.686844,7,0.0,-52.734375,-102.5390625,30.76171875,0.0
1733383223.7025182,7,0.0,-54.19921875,65.4296875,3.90625,0.0
1733383223.7179275,7,0.0,-53.7109375,68.84765625,8.30078125,0.0
1733383223.733556,7,0.0,-64.94140625,-141.11328125,56.15234375,0.0
1733383223.748935,7,0.0,-58.10546875,-329.58984375,68.359375,0.0
1733383223.7638297,7,0.0,-48.828125,-79.1015625,-44.43359375,0.0
1733383223.7790694,7,0.0,-52.734375,94.23828125,-68.84765625,0.0
1733383223.7946134,7,0.0,-55.6640625,-87.890625,-1.953125,0.0
1733383223.8099043,7,0.0,-43.9453125,-79.58984375,-4.39453125,0.0
1733383223.8253057,7,0.0,-34.1796875,51.7578125,-37.109375,0.0
1733383223.8409014,7,100.5859375,-43.45703125,41.9921875,9.27734375,0.0
1733383223.8561323,7,100.09765625,-61.5234375,-97.65625,21.484375,0.0
1733383223.870888,7,144.53125,-54.6875,-228.515625,4.39453125,0.0
1733383223.8870115,7,143.06640625,-36.1328125,-91.796875,-31.73828125,0.0
1733383223.901824,7,103.02734375,-45.41015625,16.11328125,-33.203125,0.0
1733383223.9172015,7,89.84375,-42.48046875,-217.28515625,44.921875,0.0
1733383223.9327412,7,96.6796875,-41.50390625,-344.7265625,55.17578125,0.0
1733383223.9484544,7,83.984375,-36.62109375,-283.203125,23.4375,0.0
1733383223.9636052,7,104.4921875,-29.296875,-172.36328125,25.87890625,0.0
1733383223.9795115,7,156.25,-44.921875,-314.453125,60.05859375,0.0
1733383223.9945993,7,117.1875,-63.4765625,-245.1171875,13.18359375,0.0
1733383224.0099363,7,87.890625,-43.9453125,-126.953125,-5.859375,0.0
1733383224.0253382,7,0.0,-26.3671875,-297.8515625,14.16015625,0.0
1733383224.040662,7,0.0,-41.015625,-348.14453125,-18.06640625,0.0
1733383224.0555882,7,0.0,-35.15625,-165.52734375,-37.59765625,0.0
1733383224.0713208,7,0.0,-28.3203125,9.765625,-14.6484375,0.0
1733383224.0868845,7,0.0,-49.8046875,-210.9375,18.06640625,0.0
1733383224.1028347,7,0.0,-48.33984375,-439.94140625,32.2265625,0.0
1733383224.1181123,7,0.0,-48.33984375,-371.09375,54.6875,0.0
1733383224.1335018,7,0.0,-60.546875,-203.61328125,36.1328125,0.0
1733383224.1490424,7,0.0,-48.828125,-320.3125,45.41015625,0.0
1733383224.1642258,7,0.0,-45.41015625,-479.00390625,64.453125,0.0
1733383224.179478,7,0.0,-44.43359375,-215.8203125,-34.66796875,0.0
1733383224.1949143,7,0.0,-53.7109375,-166.9921875,-45.8984375,0.0
1733383224.2107804,7,67.87109375,-67.3828125,-282.2265625,-18.06640625,0.0
1733383224.2260973,7,64.94140625,-67.3828125,-261.71875,-9.765625,0.0
1733383224.241694,7,66.40625,-70.3125,-250.48828125,13.18359375,0.0
1733383224.2571557,7,111.81640625,-72.75390625,-322.265625,70.3125,0.0
